EEG.AF3,EEG.F7,EEG.F3,EEG.FC5,EEG.T7,EEG.P7,EEG.O1,EEG.O2,EEG.P8,EEG.T8,EEG.FC6,EEG.F4,EEG.F8,EEG.AF4
4339.49,4521.03,4187.69,4627.69,4339.49,4112.31,4348.72,4252.31,4932.82,4447.69,4475.38,4738.46,4420.51,4598.46
4346.67,4527.18,4202.05,4633.85,4342.05,4122.05,4366.67,4267.69,4949.74,4465.64,4485.64,4749.74,4432.82,4611.28
4350.26,4540.00,4207.18,4643.08,4341.54,4122.05,4374.87,4271.28,4954.36,4462.56,4485.13,4747.18,4430.77,4612.31
4337.95,4530.77,4198.46,4638.46,4336.92,4118.97,4372.31,4258.97,4936.92,4441.03,4472.31,4734.87,4413.85,4598.46
4334.87,4519.49,4189.23,4629.23,4342.05,4118.97,4369.74,4245.64,4923.08,4436.41,4471.28,4731.79,4416.41,4596.41
4341.54,4525.13,4187.69,4630.77,4342.56,4114.36,4370.26,4233.85,4923.59,4446.67,4472.82,4730.26,4426.15,4604.10
4340.51,4529.23,4185.64,4635.38,4329.23,4108.72,4365.64,4221.54,4917.44,4444.62,4460.00,4719.49,4415.38,4597.95
4333.85,4526.67,4182.05,4633.33,4326.67,4106.67,4350.26,4210.77,4905.64,4431.28,4454.87,4711.28,4410.26,4590.77
4331.28,4522.05,4177.95,4628.72,4338.46,4106.67,4340.51,4204.10,4900.00,4414.36,4460.51,4711.28,4414.87,4592.31
4339.49,4526.67,4182.05,4633.85,4341.54,4108.72,4340.51,4207.69,4902.56,4401.03,4462.56,4718.46,4416.92,4595.90
4349.23,4535.90,4194.36,4642.56,4338.97,4104.10,4330.26,4225.64,4917.44,4417.44,4474.87,4735.90,4423.59,4602.56
4347.18,4530.77,4202.56,4637.44,4345.13,4095.90,4322.56,4245.13,4936.41,4456.41,4491.79,4749.74,4430.77,4606.67
4342.05,4520.00,4200.00,4631.79,4341.03,4097.95,4332.82,4254.36,4941.54,4467.18,4493.85,4748.72,4437.95,4611.28
4342.56,4525.64,4197.95,4640.00,4332.31,4104.62,4344.62,4262.05,4944.10,4460.51,4491.28,4740.00,4446.67,4614.87
4343.08,4535.38,4198.46,4644.10,4340.00,4106.67,4355.38,4269.74,4957.44,4465.13,4492.82,4736.41,4438.46,4609.23
4343.08,4534.87,4190.26,4640.51,4348.21,4109.74,4369.74,4269.74,4956.92,4453.33,4484.10,4735.90,4429.74,4603.08
4348.72,4535.90,4183.08,4640.00,4345.64,4112.82,4371.79,4264.10,4944.10,4440.51,4476.41,4727.18,4443.08,4605.64
4348.21,4536.41,4184.10,4637.44,4341.54,4110.26,4362.56,4254.36,4940.51,4442.05,4478.97,4717.95,4446.15,4606.15
4341.54,4528.72,4184.62,4636.41,4340.51,4105.64,4357.44,4243.08,4934.36,4427.18,4480.51,4717.95,4430.77,4601.03
4344.10,4522.56,4190.26,4641.54,4339.49,4104.10,4357.95,4230.77,4917.95,4414.87,4475.38,4720.00,4429.23,4604.62
4352.82,4527.69,4200.51,4645.13,4342.05,4100.51,4358.46,4218.46,4906.67,4420.51,4464.62,4722.05,4426.15,4607.18
4357.95,4536.92,4203.08,4647.18,4338.97,4094.36,4353.85,4216.92,4904.62,4413.33,4460.00,4728.72,4412.82,4601.03
4360.00,4537.95,4204.10,4651.28,4330.77,4094.36,4346.15,4226.67,4907.18,4403.08,4471.79,4736.41,4416.92,4603.59
4355.90,4528.21,4202.56,4646.67,4336.41,4100.00,4350.77,4236.92,4914.36,4415.38,4482.05,4734.36,4432.31,4612.31
4349.74,4520.00,4191.28,4633.33,4346.67,4103.59,4361.54,4245.13,4921.54,4429.23,4471.79,4724.62,4428.21,4608.72
4346.67,4520.00,4183.59,4630.26,4337.95,4102.56,4365.64,4254.87,4925.13,4428.72,4462.56,4716.41,4410.77,4589.23
4347.69,4522.56,4185.64,4637.95,4325.13,4105.13,4368.72,4262.56,4929.23,4417.44,4471.28,4716.92,4409.74,4580.00
4354.36,4523.59,4190.77,4642.05,4332.31,4108.21,4374.87,4258.97,4930.26,4412.82,4477.95,4726.15,4421.54,4596.41
4359.49,4523.08,4197.44,4639.49,4345.64,4106.67,4375.38,4246.67,4927.18,4422.05,4479.49,4733.85,4428.72,4608.72
4355.90,4523.59,4201.54,4637.95,4344.62,4106.15,4371.79,4234.87,4922.56,4425.64,4475.38,4731.79,4427.69,4604.62
4357.44,4529.74,4200.00,4644.62,4339.49,4107.69,4368.21,4225.13,4917.95,4428.21,4466.15,4725.13,4426.15,4604.10
4366.15,4538.46,4201.03,4656.41,4342.56,4106.15,4365.13,4210.26,4911.28,4425.13,4460.51,4721.54,4423.59,4609.74
4363.59,4537.95,4202.05,4658.97,4343.08,4099.49,4357.95,4194.87,4899.49,4406.67,4458.97,4718.97,4410.77,4603.08
4357.95,4533.33,4199.49,4653.85,4341.03,4093.33,4351.28,4190.77,4888.72,4397.44,4461.54,4719.49,4404.10,4599.49
4365.64,4540.00,4201.03,4657.95,4346.67,4091.28,4346.67,4196.92,4890.26,4396.92,4471.28,4727.69,4413.85,4612.82
4369.23,4542.05,4202.05,4662.05,4348.21,4092.31,4345.64,4201.54,4894.87,4397.95,4474.87,4730.77,4413.85,4617.44
4355.38,4527.69,4194.87,4652.31,4342.05,4091.79,4350.26,4204.10,4892.31,4420.51,4460.00,4720.00,4394.36,4601.54
4341.54,4516.92,4185.64,4638.97,4345.64,4091.28,4356.92,4210.77,4887.18,4432.82,4443.08,4704.62,4378.46,4586.15
4341.03,4517.95,4182.05,4635.90,4345.64,4092.82,4366.67,4215.38,4887.69,4409.74,4441.03,4702.05,4378.46,4583.59
4344.10,4521.03,4185.13,4644.10,4328.21,4096.41,4378.97,4217.95,4893.33,4400.51,4451.28,4713.85,4383.08,4588.72
4341.54,4520.51,4186.15,4646.67,4330.26,4098.97,4382.56,4221.03,4894.36,4407.18,4461.03,4719.49,4383.59,4588.21
4341.54,4519.49,4185.13,4639.49,4349.74,4098.46,4373.85,4219.49,4891.28,4394.87,4457.44,4715.90,4377.44,4582.05
4352.31,4517.44,4191.28,4638.97,4345.13,4095.38,4367.18,4218.97,4898.97,4400.51,4455.38,4718.97,4381.54,4586.15
4360.51,4524.10,4201.03,4648.72,4336.41,4091.28,4362.05,4221.03,4909.23,4435.38,4466.67,4729.74,4404.62,4606.15
4360.51,4538.46,4204.10,4655.90,4344.62,4089.23,4352.82,4219.49,4912.31,4448.21,4483.08,4735.38,4421.03,4621.54
4360.51,4541.03,4203.08,4661.03,4342.56,4087.18,4349.23,4218.46,4912.31,4435.90,4489.23,4736.41,4415.90,4619.49
4361.54,4537.95,4204.10,4661.03,4335.38,4084.10,4343.08,4215.38,4912.82,4423.08,4481.03,4735.38,4411.79,4609.74
4357.95,4538.46,4205.13,4658.46,4344.62,4080.51,4333.33,4211.28,4907.18,4403.08,4474.36,4733.85,4411.28,4603.59
4354.87,4542.05,4204.62,4660.00,4351.28,4082.56,4334.87,4211.28,4898.46,4397.44,4476.92,4730.77,4408.72,4604.62
4353.33,4540.51,4196.41,4656.92,4345.13,4087.69,4340.51,4207.18,4891.79,4418.46,4470.77,4721.54,4404.10,4602.56
4344.10,4530.26,4183.08,4646.67,4337.44,4088.21,4341.03,4197.95,4886.67,4416.41,4453.33,4708.72,4389.23,4589.23
4335.90,4522.56,4178.46,4644.62,4331.79,4088.72,4353.33,4204.10,4885.64,4391.79,4443.08,4703.59,4383.59,4581.54
4343.08,4522.56,4181.03,4642.56,4333.85,4095.38,4373.85,4216.92,4892.31,4396.41,4446.67,4706.67,4391.79,4582.56
4334.36,4522.56,4179.49,4635.90,4343.59,4095.90,4376.41,4217.95,4903.59,4418.46,4457.95,4710.26,4400.00,4585.64
4338.97,4523.08,4180.00,4638.97,4341.03,4091.79,4370.26,4220.51,4907.18,4416.41,4472.31,4719.49,4408.72,4596.41
4407.69,4526.15,4190.77,4644.10,4332.82,4103.08,4371.28,4231.28,4905.64,4406.15,4477.44,4730.26,4415.90,4604.62
4441.03,4528.21,4199.49,4640.51,4339.49,4108.72,4366.15,4231.79,4909.23,4415.38,4475.38,4735.38,4413.85,4602.56
4383.08,4532.82,4198.97,4643.08,4348.21,4094.36,4356.41,4221.54,4911.79,4435.90,4475.90,4737.44,4416.41,4603.08
4350.26,4541.03,4198.46,4657.44,4343.08,4085.13,4354.36,4215.90,4909.23,4433.85,4480.00,4740.00,4426.67,4612.31
4373.85,4543.59,4202.56,4666.67,4337.44,4089.74,4355.90,4218.97,4908.21,4404.62,4482.56,4739.49,4420.00,4612.31
4373.85,4541.03,4202.05,4663.08,4344.10,4090.77,4350.26,4217.95,4908.21,4404.62,4476.92,4735.90,4409.23,4603.08
4361.54,4538.97,4203.59,4655.90,4351.28,4087.18,4345.13,4216.41,4906.67,4426.15,4473.85,4737.95,4416.41,4605.64
4373.33,4541.03,4210.77,4659.49,4342.56,4082.56,4348.72,4225.64,4909.74,4420.00,4482.05,4745.13,4425.64,4615.90
4376.41,4544.62,4210.26,4666.15,4332.82,4081.54,4352.82,4228.21,4909.23,4412.31,4483.08,4742.56,4418.46,4612.82
4367.69,4535.38,4197.44,4655.90,4341.54,4086.67,4358.46,4213.85,4894.87,4417.44,4464.10,4726.15,4400.51,4595.90
4363.08,4527.18,4187.18,4648.72,4348.72,4094.36,4369.23,4210.77,4887.69,4414.36,4452.82,4718.46,4392.31,4592.31
4364.62,4532.82,4190.77,4654.36,4349.74,4103.59,4376.41,4217.44,4901.03,4421.03,4462.56,4729.23,4400.51,4598.97
4366.67,4537.44,4197.44,4653.85,4360.00,4106.67,4374.87,4217.44,4916.41,4438.97,4472.82,4736.92,4410.26,4601.54
4367.18,4536.41,4199.49,4655.90,4357.95,4100.00,4375.38,4223.59,4922.56,4431.79,4478.97,4733.85,4414.87,4607.69
4371.79,4538.97,4201.03,4665.13,4345.13,4095.90,4374.87,4230.26,4919.49,4420.51,4483.08,4736.92,4416.41,4615.90
4372.82,4540.00,4204.10,4658.97,4354.36,4096.92,4370.26,4222.56,4910.77,4432.31,4474.87,4746.67,4413.85,4615.90
4374.36,4537.95,4207.69,4656.41,4366.67,4093.85,4366.67,4215.38,4905.13,4434.36,4467.69,4749.74,4410.77,4615.90
4378.46,4539.49,4207.18,4668.21,4353.85,4089.74,4365.64,4216.92,4909.74,4420.00,4472.82,4743.59,4411.28,4617.44
4378.46,4540.00,4210.26,4668.21,4350.26,4089.23,4363.59,4213.33,4902.56,4409.74,4478.46,4736.92,4410.77,4609.74
4377.44,4538.97,4212.31,4665.64,4358.46,4088.72,4359.49,4210.26,4892.31,4417.95,4476.92,4737.95,4410.77,4605.13
4377.95,4540.51,4206.15,4670.77,4351.79,4084.10,4356.92,4213.85,4896.92,4438.46,4473.85,4741.54,4411.79,4608.72
4371.79,4534.36,4200.51,4666.15,4341.54,4081.54,4360.00,4214.36,4902.56,4441.03,4471.28,4736.92,4406.15,4603.08
4366.67,4528.72,4204.10,4659.49,4347.18,4086.67,4368.21,4211.79,4897.44,4417.95,4472.31,4730.77,4401.03,4596.92
4370.26,4533.33,4205.64,4662.05,4362.05,4093.85,4377.44,4213.33,4901.54,4416.41,4473.85,4733.85,4405.64,4601.03
4376.41,4539.49,4203.08,4663.59,4364.62,4096.92,4384.10,4216.92,4918.97,4458.46,4472.82,4735.38,4414.36,4605.13
4378.97,4541.03,4207.69,4663.59,4359.49,4098.46,4381.54,4216.92,4925.64,4471.79,4479.49,4733.85,4425.13,4610.77
4377.44,4540.51,4208.72,4664.10,4363.59,4096.92,4374.36,4220.51,4924.62,4439.49,4493.85,4742.56,4432.31,4617.44
4378.97,4540.51,4203.59,4662.56,4366.15,4092.82,4370.77,4236.41,4935.38,4450.77,4497.95,4751.79,4430.77,4616.92
4383.59,4539.49,4203.59,4665.13,4357.95,4089.74,4369.74,4247.69,4940.51,4484.10,4491.79,4751.28,4429.23,4614.87
4383.59,4540.51,4204.10,4665.64,4355.38,4088.72,4366.67,4242.05,4928.72,4461.54,4490.26,4749.23,4430.26,4617.44
4381.54,4536.41,4201.54,4663.08,4357.95,4087.18,4365.13,4234.36,4916.92,4436.41,4490.77,4750.26,4425.13,4617.44
4378.46,4526.67,4202.56,4661.03,4351.79,4081.03,4367.69,4227.69,4910.26,4451.28,4483.59,4753.33,4417.44,4609.74
4372.82,4523.08,4198.97,4652.82,4352.82,4074.87,4365.64,4213.85,4896.92,4446.67,4474.87,4749.74,4412.31,4604.62
4371.28,4523.59,4189.23,4647.18,4353.33,4074.87,4357.44,4199.49,4883.59,4409.74,4473.33,4740.00,4406.15,4603.08
4372.31,4524.62,4185.64,4655.38,4337.95,4073.85,4354.36,4189.74,4876.92,4396.92,4472.31,4733.33,4400.00,4594.87
4365.13,4522.56,4182.56,4659.49,4330.26,4073.85,4357.44,4182.05,4871.79,4409.74,4462.05,4728.72,4391.79,4583.59
4354.87,4513.33,4170.26,4647.18,4347.18,4083.08,4362.56,4181.54,4871.79,4408.21,4445.64,4715.90,4382.56,4578.97
4352.82,4506.67,4163.59,4637.95,4361.54,4091.28,4363.08,4188.21,4880.00,4404.62,4445.13,4705.64,4383.08,4576.92
4367.69,4520.51,4172.31,4647.18,4357.95,4090.26,4357.44,4194.87,4894.36,4428.21,4463.59,4714.87,4405.13,4584.62
4383.59,4539.49,4184.62,4662.05,4358.46,4087.18,4354.36,4206.67,4907.18,4460.00,4475.90,4731.28,4429.23,4609.74
4384.62,4541.03,4198.46,4665.13,4362.56,4086.15,4355.90,4221.54,4913.85,4462.05,4483.59,4736.41,4433.33,4623.59
4382.56,4538.97,4215.38,4664.62,4349.74,4080.00,4353.85,4225.64,4916.41,4447.18,4490.77,4734.36,4428.21,4613.33
4382.56,4536.92,4189.74,4665.64,4340.00,4070.26,4349.74,4223.08,4911.28,4434.87,4483.08,4732.82,4424.62,4603.08
4377.44,4526.67,4178.46,4654.36,4350.77,4065.13,4350.26,4217.44,4893.33,4421.54,4473.33,4731.79,4420.00,4602.56
4371.79,4521.03,4211.79,4644.10,4352.31,4067.18,4353.33,4208.21,4881.03,4421.54,4476.92,4731.79,4415.90,4602.56
4375.38,4524.62,4038.97,4653.33,4343.08,4070.77,4357.44,4201.03,4883.59,4442.56,4476.41,4734.36,4416.41,4603.59
4377.95,4520.51,3659.49,4655.38,4344.10,4073.85,4357.95,4195.38,4882.56,4447.69,4463.59,4732.82,4411.79,4601.03
4376.41,4512.82,3473.85,4647.69,4337.44,4075.90,4356.92,4184.10,4870.26,4418.46,4453.85,4729.74,4401.03,4595.38
4379.49,4516.92,3536.41,4655.90,4318.97,4074.36,4358.46,4183.59,4871.28,4409.23,4460.00,4731.79,4398.97,4596.41
4381.54,4523.59,3557.44,4663.59,4328.72,4077.44,4364.62,4196.92,4887.18,4428.72,4475.90,4734.87,4408.21,4603.59
4375.90,4520.51,3522.05,4651.79,4351.28,4082.05,4365.13,4204.10,4893.85,4425.64,4477.95,4735.38,4414.87,4603.59
4369.74,4516.41,3542.56,4646.15,4349.23,4081.03,4357.95,4206.15,4898.97,4427.69,4466.67,4735.38,4409.23,4598.46
4374.36,4519.49,3566.15,4655.90,4336.92,4081.03,4357.95,4218.46,4910.26,4457.44,4469.74,4734.87,4411.79,4600.00
4380.00,4520.00,3571.79,4658.46,4335.38,4083.59,4366.15,4229.74,4912.82,4464.10,4480.51,4734.87,4424.10,4604.10
4379.49,4516.92,3577.44,4653.33,4338.97,4083.08,4369.23,4227.69,4907.69,4457.44,4480.00,4736.41,4421.54,4602.56
4380.00,4519.49,3584.10,4654.36,4338.97,4082.56,4370.26,4218.46,4901.54,4452.82,4474.36,4736.41,4412.31,4603.59
4382.05,4522.56,3591.79,4658.46,4341.54,4083.08,4371.28,4204.62,4887.69,4421.54,4474.87,4735.38,4411.79,4605.13
4380.51,4517.95,3594.36,4653.85,4350.77,4077.95,4362.56,4189.74,4873.33,4415.38,4473.85,4735.38,4409.74,4602.05
4381.54,4520.00,3601.03,4654.87,4352.31,4073.33,4352.82,4182.56,4874.87,4457.95,4470.26,4734.87,4403.59,4602.56
4386.15,4530.26,3612.31,4668.72,4341.54,4074.36,4359.49,4180.51,4876.41,4465.64,4470.26,4734.36,4403.59,4607.18
4380.00,4523.59,3619.49,4669.23,4343.59,4072.82,4364.10,4167.69,4864.62,4435.90,4464.62,4733.33,4399.49,4604.10
4370.77,4507.18,3619.49,4654.87,4350.77,4067.18,4360.00,4154.36,4855.38,4418.97,4456.41,4731.28,4387.18,4598.46
4373.85,4510.77,3621.54,4657.95,4342.56,4068.72,4365.64,4161.03,4862.05,4412.31,4463.59,4733.33,4385.64,4598.97
4375.38,4519.49,3625.13,4668.72,4335.90,4078.97,4376.41,4176.41,4873.33,4421.54,4468.72,4736.41,4385.64,4594.36
4366.67,4510.77,3621.03,4655.90,4343.08,4078.97,4374.87,4188.21,4876.92,4434.36,4457.95,4728.21,4373.85,4584.10
4361.54,4501.03,3621.54,4642.05,4349.74,4075.38,4370.77,4204.10,4884.10,4423.08,4459.49,4723.59,4370.26,4581.54
4365.64,4506.15,3635.38,4651.28,4351.28,4084.62,4372.31,4219.49,4901.03,4432.31,4476.92,4732.31,4386.15,4593.33
4368.21,4509.23,3640.00,4658.97,4352.31,4091.28,4372.31,4223.08,4910.77,4465.13,4482.05,4733.85,4401.03,4601.03
4367.69,4505.13,3636.41,4650.26,4354.87,4081.03,4372.31,4225.13,4908.21,4464.10,4474.36,4725.64,4396.41,4597.44
4372.31,4505.13,3648.21,4648.21,4349.74,4072.31,4369.23,4230.77,4909.23,4457.44,4473.85,4728.21,4391.79,4596.41
4379.49,4509.23,3666.15,4661.03,4341.03,4075.90,4363.59,4233.33,4911.79,4462.05,4487.18,4740.00,4406.67,4606.15
4377.44,4509.23,3669.23,4663.59,4344.10,4078.97,4363.08,4222.56,4901.54,4441.54,4493.33,4740.51,4412.31,4608.72
4372.31,4506.15,3667.18,4651.79,4352.31,4076.92,4365.13,4207.18,4889.23,4427.18,4481.03,4729.74,4395.90,4601.03
4372.82,4505.13,3672.82,4643.59,4350.77,4075.90,4366.15,4197.95,4883.59,4442.56,4472.82,4724.10,4389.23,4598.97
4375.38,4505.64,3682.05,4648.72,4346.15,4075.90,4366.67,4191.28,4875.90,4437.44,4478.97,4731.79,4397.95,4600.51
4373.33,4504.62,3689.23,4656.92,4340.51,4073.85,4366.15,4184.10,4863.08,4407.18,4480.00,4740.51,4394.87,4602.05
4373.85,4503.08,3693.85,4655.38,4341.54,4073.33,4364.10,4181.03,4859.49,4404.10,4467.69,4735.38,4381.54,4598.97
4379.49,4504.10,3695.90,4651.79,4348.72,4076.92,4366.15,4182.56,4866.15,4431.79,4460.00,4722.05,4381.03,4593.33
4380.51,4508.21,3696.92,4655.90,4349.23,4078.46,4367.69,4187.69,4876.41,4450.77,4462.05,4717.95,4392.82,4594.87
4378.46,4507.69,3700.00,4656.41,4348.21,4076.41,4367.69,4197.95,4888.72,4439.49,4465.13,4720.00,4399.49,4600.00
4380.51,4506.67,3705.64,4652.31,4353.85,4076.92,4365.64,4204.62,4892.82,4424.10,4467.18,4720.00,4395.90,4601.03
4387.18,4518.97,3715.90,4658.46,4348.72,4076.41,4362.56,4202.05,4891.79,4434.36,4474.36,4721.03,4395.90,4601.03
4388.21,4524.62,3723.08,4667.18,4339.49,4069.74,4355.90,4201.03,4891.28,4442.05,4482.56,4723.08,4402.56,4604.10
4382.05,4510.77,3724.10,4659.49,4347.69,4064.62,4348.72,4197.95,4887.18,4427.69,4473.85,4718.46,4397.44,4601.03
4383.08,4509.74,3730.26,4656.41,4355.90,4066.15,4348.72,4189.74,4877.95,4423.59,4458.97,4716.41,4386.67,4596.92
4389.74,4520.51,3737.95,4663.08,4348.72,4066.67,4353.85,4188.72,4876.41,4429.23,4460.00,4723.59,4388.21,4599.49
4387.18,4513.85,3741.54,4660.51,4343.59,4065.64,4360.00,4197.95,4883.59,4426.15,4473.33,4730.26,4394.87,4602.05
4380.00,4503.08,3745.64,4654.36,4341.54,4069.23,4363.59,4203.08,4890.26,4435.90,4473.33,4732.82,4396.41,4601.54
4382.05,4505.13,3751.28,4654.36,4337.95,4073.85,4367.18,4202.05,4890.77,4445.13,4464.10,4735.38,4394.87,4600.51
4383.08,4506.15,3751.28,4651.28,4346.67,4077.95,4372.82,4202.56,4889.23,4429.23,4468.72,4735.90,4391.79,4600.00
4375.90,4502.56,3754.36,4645.64,4358.46,4082.05,4376.92,4203.59,4887.69,4428.21,4476.41,4734.36,4387.69,4598.97
4376.41,4503.08,3765.64,4652.31,4355.90,4086.67,4378.97,4202.05,4889.23,4441.03,4474.87,4736.41,4390.77,4598.97
4387.18,4512.82,3778.97,4666.15,4353.85,4091.28,4384.10,4203.59,4897.44,4444.10,4476.41,4740.51,4396.92,4599.49
4392.31,4523.08,3786.67,4672.82,4357.95,4090.77,4386.67,4209.23,4902.05,4456.41,4476.41,4738.46,4398.97,4601.03
4386.15,4514.87,3784.10,4666.67,4360.00,4083.08,4376.41,4202.05,4894.36,4460.51,4466.67,4732.31,4394.87,4598.97
4381.03,4504.10,3780.00,4655.90,4364.10,4076.41,4365.13,4187.18,4887.18,4440.00,4464.10,4730.26,4388.72,4594.87
4385.13,4513.33,3788.72,4657.44,4370.26,4078.46,4358.97,4190.77,4891.79,4440.51,4473.33,4735.38,4391.28,4597.95
4391.28,4523.08,3802.05,4669.74,4366.15,4077.95,4354.87,4202.05,4893.85,4447.18,4480.00,4741.54,4400.51,4603.59
4390.77,4521.54,3803.08,4674.36,4355.38,4071.79,4356.41,4191.28,4888.21,4432.31,4475.38,4738.46,4397.44,4602.05
4385.64,4517.44,3795.38,4666.15,4355.38,4073.85,4364.10,4179.49,4887.18,4438.46,4469.23,4729.23,4385.64,4598.46
4382.56,4512.82,3791.79,4655.90,4363.59,4085.64,4376.92,4192.31,4889.74,4450.26,4472.31,4727.18,4385.64,4597.95
4375.38,4505.64,3792.31,4648.72,4365.13,4090.77,4391.28,4204.10,4890.26,4441.03,4473.85,4723.08,4388.72,4589.23
4369.74,4504.10,3794.87,4646.67,4361.54,4087.18,4394.36,4203.59,4890.26,4447.69,4470.77,4718.46,4385.13,4584.10
4382.05,4511.28,3805.64,4659.49,4364.10,4089.74,4390.77,4220.00,4905.13,4471.28,4481.03,4732.82,4394.36,4601.03
4394.87,4520.00,3817.95,4669.74,4371.79,4095.38,4389.74,4236.92,4919.49,4465.64,4495.90,4752.31,4411.28,4615.90
4392.82,4522.05,3825.13,4667.18,4367.18,4092.31,4386.67,4228.72,4913.33,4451.79,4493.85,4750.77,4412.31,4608.72
4393.33,4523.59,3829.74,4670.26,4361.03,4087.69,4381.03,4213.85,4905.13,4472.82,4487.18,4741.03,4408.72,4607.18
4400.00,4527.69,3834.87,4676.92,4372.82,4085.13,4376.41,4209.74,4903.59,4477.95,4486.15,4740.00,4411.28,4617.95
4398.97,4524.62,3840.51,4673.33,4382.56,4079.49,4368.72,4200.00,4891.28,4443.08,4481.03,4738.97,4404.62,4610.26
4397.44,4522.56,3845.64,4668.72,4369.23,4073.85,4362.56,4184.62,4873.33,4431.28,4477.44,4733.33,4394.36,4597.44
4395.90,4522.56,3847.18,4671.79,4354.36,4072.31,4367.18,4175.38,4867.18,4446.67,4473.85,4732.31,4392.82,4599.49
4387.69,4512.82,3841.03,4667.69,4354.87,4077.44,4376.41,4170.26,4864.10,4433.33,4466.67,4731.79,4386.15,4597.95
4377.44,4501.03,3830.77,4656.41,4358.46,4086.15,4387.69,4166.15,4858.97,4418.46,4457.44,4723.59,4372.31,4583.59
4373.33,4501.54,3827.69,4651.79,4361.03,4089.74,4393.85,4168.21,4865.13,4436.92,4455.38,4712.82,4372.31,4576.92
4383.08,4513.85,3837.95,4658.97,4365.64,4091.28,4391.79,4181.03,4884.62,4446.67,4467.69,4715.38,4390.26,4587.18
4395.90,4525.13,3848.21,4668.21,4367.69,4094.87,4389.74,4198.97,4899.49,4438.97,4480.00,4728.72,4405.13,4600.51
4396.41,4527.18,3853.85,4666.15,4367.69,4094.36,4387.69,4212.82,4907.18,4452.31,4477.95,4736.92,4402.05,4602.56
4392.82,4521.54,3860.00,4662.05,4365.64,4089.74,4379.49,4221.03,4917.44,4474.36,4478.97,4736.41,4400.00,4600.00
4397.95,4523.59,3862.56,4666.15,4367.18,4088.21,4372.31,4224.10,4921.03,4472.31,4493.85,4736.41,4412.31,4606.67
4408.21,4536.41,3868.72,4675.38,4372.82,4085.64,4369.23,4221.54,4911.28,4460.51,4499.49,4744.62,4423.59,4618.46
4413.33,4542.56,3881.54,4681.54,4374.87,4081.03,4363.59,4215.90,4900.51,4455.38,4490.26,4748.21,4422.05,4618.46
4405.13,4536.92,3883.08,4679.49,4368.72,4080.00,4362.05,4202.56,4888.21,4442.05,4480.00,4735.90,4409.74,4609.23
4389.23,4523.59,3868.21,4669.74,4360.00,4076.92,4374.87,4185.13,4872.82,4431.79,4468.21,4719.49,4395.90,4596.92
4383.08,4511.28,3862.56,4662.05,4354.36,4075.38,4391.79,4178.46,4863.59,4439.49,4458.97,4713.33,4386.67,4588.72
4381.03,4505.64,3866.15,4658.46,4357.44,4083.08,4401.54,4178.97,4858.97,4433.33,4458.97,4710.77,4383.08,4582.56
4373.85,4502.56,3863.08,4651.28,4364.10,4092.31,4402.56,4181.03,4856.41,4412.31,4457.44,4706.15,4378.46,4570.77
4370.77,4497.95,3858.46,4646.15,4367.69,4093.85,4398.97,4186.67,4863.59,4411.79,4455.38,4707.69,4376.41,4568.21
4382.05,4507.18,3869.74,4655.38,4366.15,4091.28,4393.85,4200.00,4878.46,4425.13,4471.28,4718.97,4387.18,4581.54
4395.90,4521.03,3891.28,4669.74,4363.08,4087.18,4387.69,4220.51,4900.00,4450.77,4492.82,4732.31,4408.21,4597.44
4397.95,4523.08,3898.97,4672.31,4369.74,4086.15,4379.49,4231.79,4914.36,4481.03,4493.85,4736.41,4417.95,4601.54
4397.95,4528.72,3895.38,4669.74,4374.87,4088.21,4374.36,4227.69,4913.33,4482.56,4490.26,4733.85,4414.87,4602.05
4398.46,4535.90,3901.54,4672.31,4373.33,4084.62,4365.13,4220.00,4907.69,4458.46,4493.85,4733.85,4416.92,4606.15
4391.79,4527.69,3908.72,4672.82,4372.82,4076.41,4358.46,4213.33,4902.56,4445.64,4486.67,4729.23,4416.92,4599.49
4391.79,4521.54,3908.72,4671.79,4371.28,4074.87,4362.05,4205.64,4894.87,4442.56,4474.36,4720.00,4402.05,4587.18
4396.41,4525.64,3908.72,4673.85,4364.62,4076.41,4363.08,4194.87,4881.54,4418.46,4468.21,4716.92,4393.85,4583.08
4387.18,4519.49,3909.74,4671.28,4357.95,4073.85,4367.18,4183.59,4865.64,4398.46,4461.03,4715.38,4393.85,4585.64
4382.56,4510.26,3908.21,4664.10,4357.44,4078.46,4381.54,4184.10,4855.90,4411.79,4457.95,4718.46,4389.74,4583.59
4392.82,4515.38,3910.26,4664.10,4360.00,4084.10,4386.67,4195.90,4861.54,4431.28,4466.67,4728.21,4388.72,4585.13
4397.95,4522.05,3919.49,4669.23,4371.79,4083.08,4383.08,4203.59,4872.82,4433.85,4474.36,4734.87,4398.46,4593.33
4398.46,4523.59,3931.28,4672.82,4375.90,4086.67,4393.33,4211.28,4881.54,4435.38,4481.54,4741.54,4408.21,4603.08
4404.62,4523.08,3940.51,4677.95,4366.67,4092.82,4396.92,4221.54,4894.87,4447.69,4492.82,4751.79,4418.46,4614.36
4407.69,4528.21,3941.03,4681.54,4370.26,4090.26,4383.59,4222.56,4902.05,4444.62,4496.41,4751.79,4428.21,4618.97
4408.21,4536.92,3938.97,4678.97,4384.62,4088.72,4377.44,4215.90,4894.36,4427.18,4491.28,4743.08,4424.10,4612.31
4413.33,4541.03,3944.10,4680.51,4382.56,4093.33,4376.41,4207.69,4889.23,4432.82,4487.18,4744.10,4412.31,4610.77
4418.97,4542.05,3956.92,4688.21,4376.92,4086.67,4366.67,4200.51,4890.77,4446.67,4491.79,4752.31,4414.36,4620.51
4418.46,4540.00,3964.62,4686.67,4385.13,4076.41,4362.05,4188.21,4881.54,4438.97,4491.28,4751.28,4419.49,4622.05
4407.69,4528.72,3954.36,4673.33,4377.44,4075.38,4368.72,4163.08,4864.10,4429.23,4472.82,4736.92,4400.00,4604.10
4393.33,4512.82,3941.03,4666.15,4357.44,4074.87,4376.41,4148.72,4854.87,4417.44,4456.41,4722.56,4376.41,4587.18
4384.62,4504.62,3940.51,4664.10,4360.00,4075.38,4386.15,4162.05,4853.85,4386.15,4457.95,4723.08,4370.26,4582.56
4380.00,4501.54,3941.54,4654.36,4376.41,4085.13,4398.46,4183.08,4863.08,4393.85,4462.05,4726.15,4367.18,4578.46
4380.00,4504.10,3943.08,4654.87,4383.08,4090.26,4401.03,4201.03,4878.97,4445.13,4464.10,4726.15,4367.69,4576.41
4383.08,4507.18,3950.77,4669.23,4374.87,4086.67,4395.38,4221.03,4890.77,4454.36,4471.28,4733.85,4378.97,4585.13
4387.69,4509.74,3958.46,4675.38,4369.23,4084.62,4391.79,4234.36,4903.08,4437.44,4482.05,4745.64,4391.28,4598.46
4395.38,4520.00,3964.62,4670.77,4381.03,4085.64,4387.69,4236.92,4912.82,4451.79,4493.85,4750.77,4402.56,4609.74
4398.46,4526.67,3971.79,4672.31,4395.90,4084.10,4378.46,4228.72,4907.69,4466.15,4498.97,4746.15,4404.10,4610.26
4395.90,4524.10,3974.36,4679.49,4386.67,4081.54,4369.74,4213.85,4893.85,4447.18,4489.23,4737.95,4386.15,4601.54
4395.38,4522.05,3973.85,4676.41,4370.77,4076.41,4363.08,4199.49,4883.59,4426.15,4478.97,4734.36,4376.92,4597.44
4396.41,4516.92,3975.38,4666.67,4372.31,4070.26,4361.03,4181.03,4874.87,4420.51,4480.00,4735.90,4385.64,4600.51
4387.18,4500.51,3974.87,4661.03,4374.36,4070.77,4371.28,4165.13,4863.08,4403.59,4473.33,4727.18,4374.36,4589.74
4372.82,4488.21,3969.74,4658.46,4362.56,4074.36,4382.56,4168.72,4855.38,4383.59,4452.82,4715.90,4348.72,4569.74
4370.26,4487.69,3968.21,4655.38,4349.23,4073.33,4387.18,4185.13,4861.03,4398.46,4444.62,4715.90,4348.72,4566.67
4374.87,4489.74,3969.74,4656.41,4354.36,4072.31,4388.72,4196.41,4872.31,4427.18,4455.90,4719.49,4363.08,4574.36
4374.87,4490.77,3969.74,4654.36,4371.28,4076.41,4391.79,4200.51,4874.87,4428.21,4462.05,4717.44,4364.10,4577.95
4374.87,4491.28,3968.72,4645.64,4383.59,4078.97,4389.74,4203.08,4872.31,4408.21,4462.56,4717.95,4365.64,4580.00
4376.92,4496.41,3972.31,4652.31,4382.56,4075.90,4383.59,4205.13,4875.38,4402.05,4475.90,4727.18,4378.97,4586.15
4381.54,4509.23,3983.59,4670.26,4373.33,4075.38,4375.90,4202.05,4886.67,4425.64,4488.72,4735.38,4390.77,4597.44
4392.31,4521.54,3993.85,4676.41,4372.82,4076.41,4362.56,4192.82,4893.85,4456.41,4492.31,4736.92,4403.59,4610.77
4400.00,4527.18,3999.49,4672.82,4385.64,4075.90,4353.33,4183.59,4887.69,4461.03,4489.74,4736.92,4410.26,4612.82
4393.33,4523.08,3998.97,4672.31,4393.85,4074.36,4351.28,4174.87,4876.92,4424.62,4485.64,4735.38,4397.95,4602.05
4387.69,4513.33,3994.36,4671.28,4386.15,4074.36,4355.38,4168.72,4874.87,4398.97,4483.59,4728.72,4387.18,4592.82
4385.64,4507.69,3990.26,4666.15,4373.85,4070.26,4361.03,4165.64,4874.87,4429.23,4478.97,4719.49,4388.21,4589.23
4375.38,4502.05,3987.69,4661.03,4366.67,4066.15,4369.74,4167.69,4872.31,4452.31,4468.72,4716.41,4380.00,4584.10
4367.18,4493.85,3988.72,4655.38,4365.13,4068.21,4381.54,4178.46,4876.41,4424.62,4463.08,4718.46,4372.31,4576.92
4364.62,4486.67,3988.21,4646.67,4366.67,4069.74,4386.67,4189.23,4875.38,4401.54,4461.03,4714.87,4370.77,4568.72
4363.59,4485.64,3983.59,4644.62,4364.62,4067.69,4383.59,4191.28,4865.64,4402.56,4457.44,4707.18,4366.67,4565.13
4369.23,4494.87,3987.69,4654.36,4365.13,4068.21,4383.59,4191.79,4864.62,4396.41,4463.08,4709.23,4370.26,4571.79
4377.95,4505.13,4002.05,4661.54,4376.41,4068.21,4388.21,4193.33,4867.69,4405.13,4473.33,4720.51,4380.00,4581.03
4386.15,4510.77,4011.28,4663.59,4380.51,4063.08,4377.95,4186.15,4866.15,4424.62,4476.92,4728.21,4387.18,4590.77
4393.85,4520.00,4016.41,4671.79,4372.82,4056.41,4353.33,4172.82,4858.46,4414.87,4479.49,4733.85,4396.92,4601.54
4392.31,4521.54,4020.00,4673.85,4371.28,4051.28,4335.90,4158.46,4849.23,4405.13,4480.00,4735.38,4400.00,4603.59
4386.15,4508.21,4019.49,4662.56,4375.38,4049.23,4334.36,4149.74,4847.18,4416.41,4477.95,4725.64,4392.31,4594.36
4385.64,4504.62,4017.95,4658.97,4368.21,4049.74,4338.46,4155.38,4857.44,4411.28,4472.82,4719.49,4384.62,4586.67
4381.03,4507.18,4018.97,4667.18,4361.03,4052.31,4341.03,4166.15,4861.03,4391.28,4465.64,4723.08,4374.87,4581.03
4369.23,4495.38,4010.77,4658.46,4368.21,4055.38,4349.23,4167.18,4855.90,4399.49,4460.00,4718.97,4362.56,4570.26
4365.13,4486.67,4001.54,4643.59,4375.38,4061.54,4361.03,4170.77,4866.67,4421.54,4459.49,4708.72,4361.54,4565.64
4365.64,4490.26,4007.18,4646.15,4366.67,4070.77,4370.26,4184.10,4881.03,4424.62,4462.56,4707.18,4368.21,4568.21
4365.64,4492.31,4011.28,4651.79,4364.62,4075.38,4375.38,4188.72,4880.00,4417.95,4466.67,4706.67,4374.87,4570.26
4364.62,4490.77,4005.13,4647.18,4381.03,4075.38,4375.38,4180.51,4877.95,4420.00,4467.18,4702.05,4376.92,4569.74
4363.08,4494.87,4004.10,4646.15,4383.59,4074.36,4373.33,4170.26,4876.92,4412.82,4457.95,4697.95,4369.74,4566.15
4369.74,4503.59,4015.38,4658.46,4371.79,4070.77,4373.33,4159.49,4865.13,4400.00,4452.31,4699.49,4365.13,4569.23
4381.54,4514.36,4030.77,4670.26,4376.92,4066.15,4366.67,4151.79,4860.00,4413.85,4465.13,4710.77,4374.36,4583.08
4386.15,4520.51,4037.95,4672.82,4388.72,4065.13,4350.26,4147.18,4865.64,4435.38,4476.41,4718.97,4387.18,4589.74
4389.23,4524.62,4036.92,4672.82,4385.13,4061.54,4338.97,4140.51,4863.08,4428.72,4476.41,4718.46,4396.41,4591.28
4391.28,4526.15,4038.97,4672.31,4372.82,4053.33,4336.41,4141.54,4859.49,4410.77,4476.41,4718.46,4395.38,4594.36
4382.05,4516.92,4045.64,4669.74,4363.59,4049.23,4338.46,4148.72,4862.05,4410.77,4475.90,4716.92,4384.10,4585.13
4369.23,4503.08,4040.00,4663.08,4362.05,4049.74,4350.26,4152.82,4857.95,4413.85,4464.62,4706.15,4368.21,4567.69
4363.08,4494.36,4028.72,4657.44,4356.92,4053.33,4370.26,4166.15,4854.36,4409.23,4452.82,4700.51,4357.95,4563.59
4357.44,4490.77,4026.15,4654.36,4347.69,4062.05,4388.21,4191.79,4866.67,4404.62,4453.33,4706.67,4356.41,4567.69
4357.44,4487.18,4026.67,4648.21,4354.87,4071.28,4398.46,4209.23,4879.49,4404.10,4460.00,4713.85,4364.62,4566.15
4366.15,4491.28,4032.31,4650.26,4368.72,4074.36,4399.49,4219.49,4889.74,4421.54,4468.72,4714.87,4376.92,4568.21
4372.31,4503.59,4042.05,4660.51,4369.23,4076.92,4396.92,4225.64,4897.44,4436.92,4476.92,4719.49,4380.51,4580.51
4375.38,4510.26,4049.23,4664.10,4368.21,4078.97,4393.33,4214.87,4890.26,4422.56,4478.46,4727.18,4384.62,4591.28
4381.03,4507.18,4054.36,4663.59,4371.28,4069.23,4379.49,4185.64,4869.74,4400.00,4476.41,4729.23,4391.28,4591.79
4384.62,4507.69,4061.54,4671.28,4370.77,4060.51,4356.41,4158.46,4856.41,4408.72,4474.87,4724.10,4388.72,4591.79
4386.67,4522.05,4068.21,4677.44,4370.26,4060.00,4341.54,4146.67,4857.44,4419.49,4474.36,4723.08,4382.05,4596.92
4388.72,4525.64,4073.33,4676.41,4366.67,4055.38,4336.92,4138.46,4856.92,4395.38,4473.85,4729.74,4383.59,4600.51
4385.64,4512.82,4076.41,4676.41,4363.59,4048.21,4337.95,4129.74,4853.85,4385.13,4475.38,4731.28,4391.79,4600.00
4379.49,4506.67,4070.77,4673.85,4364.62,4050.77,4348.72,4138.97,4856.41,4409.23,4479.49,4726.67,4392.82,4596.92
4370.77,4505.64,4058.97,4665.13,4365.13,4056.92,4366.15,4169.23,4866.67,4416.92,4473.85,4717.44,4383.59,4586.67
4356.92,4493.85,4048.21,4653.85,4366.15,4060.00,4382.56,4202.56,4882.56,4409.74,4458.46,4706.15,4369.74,4570.77
4350.77,4484.10,4045.64,4650.26,4362.56,4068.21,4395.90,4227.18,4893.85,4412.82,4452.31,4703.08,4367.18,4562.56
4353.85,4494.36,4052.31,4658.46,4355.90,4075.38,4402.56,4238.97,4894.87,4411.28,4461.03,4708.72,4374.36,4566.67
4354.87,4507.69,4056.92,4666.15,4364.10,4077.95,4400.00,4238.46,4891.28,4407.69,4462.56,4711.79,4376.92,4569.74
4358.46,4508.21,4061.03,4668.72,4374.87,4077.95,4392.82,4230.26,4884.62,4401.54,4454.87,4708.72,4376.92,4568.21
4365.64,4510.77,4068.21,4670.77,4375.38,4073.33,4385.13,4213.85,4874.87,4386.15,4461.03,4712.31,4379.49,4573.85
4375.38,4521.03,4080.00,4675.90,4375.90,4067.69,4372.31,4196.92,4872.82,4397.44,4474.87,4723.59,4386.67,4588.21
4382.56,4527.18,4091.28,4680.51,4377.44,4065.13,4356.92,4184.62,4873.85,4421.03,4477.44,4734.36,4392.31,4596.92
4384.62,4524.62,4094.87,4681.54,4371.28,4062.56,4349.74,4168.72,4864.10,4414.36,4472.82,4735.90,4394.87,4598.97
4384.10,4525.64,4094.87,4684.62,4364.10,4058.46,4346.15,4149.74,4856.41,4401.03,4476.41,4732.31,4396.92,4603.08
4386.15,4528.72,4096.92,4688.21,4360.51,4061.54,4341.03,4148.21,4865.13,4399.49,4489.23,4742.05,4403.08,4608.72
4382.05,4520.00,4094.87,4678.97,4364.62,4066.67,4344.10,4160.51,4877.95,4403.08,4490.26,4745.13,4402.05,4605.13
4369.23,4506.67,4083.59,4664.62,4374.87,4066.15,4357.95,4169.23,4882.56,4409.74,4472.82,4728.72,4388.21,4591.28
4358.97,4503.08,4074.36,4661.54,4374.36,4067.18,4368.21,4176.92,4881.03,4408.21,4458.46,4712.82,4378.46,4575.90
4354.87,4503.59,4070.26,4661.54,4368.72,4072.82,4372.31,4189.23,4880.51,4403.59,4460.00,4709.23,4378.97,4566.15
4360.51,4504.62,4073.33,4664.62,4370.77,4078.46,4378.46,4205.13,4889.74,4410.26,4467.18,4711.79,4380.51,4572.82
4368.21,4511.28,4084.62,4672.82,4372.31,4078.46,4384.10,4224.10,4901.54,4415.90,4472.31,4717.44,4381.54,4583.08
4372.82,4517.95,4089.74,4672.31,4373.85,4076.41,4389.23,4234.36,4901.03,4405.64,4475.38,4725.64,4385.64,4586.15
4377.44,4518.46,4091.28,4670.26,4373.33,4072.82,4391.28,4226.67,4891.28,4395.38,4476.92,4734.36,4389.23,4589.74
4381.54,4521.03,4099.49,4674.87,4364.10,4068.21,4382.56,4210.26,4882.05,4401.03,4474.87,4735.90,4389.23,4596.41
4386.15,4524.62,4108.21,4681.03,4360.51,4066.15,4369.74,4194.36,4871.79,4408.72,4474.87,4733.85,4393.33,4598.97
4389.74,4526.15,4108.21,4678.97,4372.82,4061.03,4354.87,4174.87,4859.49,4399.49,4473.85,4741.03,4393.33,4600.51
4386.67,4524.62,4106.67,4675.38,4371.28,4054.36,4342.05,4153.85,4847.69,4381.03,4466.15,4743.08,4384.62,4601.03
4381.03,4522.56,4113.33,4679.49,4355.38,4053.33,4341.03,4145.13,4841.54,4381.54,4464.10,4733.85,4379.49,4595.90
4381.54,4520.00,4113.33,4684.10,4361.03,4060.51,4351.79,4148.72,4843.08,4384.10,4472.31,4733.33,4379.49,4591.79
4376.92,4510.77,4103.59,4673.33,4376.41,4067.18,4365.64,4154.87,4850.77,4383.08,4467.18,4732.31,4373.85,4586.67
4365.64,4502.56,4099.49,4662.05,4370.77,4067.69,4378.97,4167.69,4857.44,4390.77,4454.36,4724.10,4365.13,4575.90
4366.15,4505.13,4104.62,4666.67,4363.08,4070.26,4392.82,4189.74,4865.13,4397.44,4453.85,4725.13,4362.56,4573.33
4373.85,4507.69,4111.28,4671.79,4364.10,4076.92,4397.95,4209.23,4879.49,4404.62,4461.54,4733.85,4369.74,4582.05
4377.95,4511.79,4118.97,4675.38,4359.49,4076.92,4395.90,4219.49,4894.87,4404.10,4470.26,4741.54,4380.00,4587.18
4381.54,4521.03,4125.64,4684.10,4358.97,4068.72,4388.21,4222.56,4893.85,4395.90,4476.92,4748.72,4382.56,4589.74
4386.67,4525.13,4124.62,4688.21,4373.33,4066.67,4373.85,4215.38,4884.10,4394.87,4476.41,4751.28,4385.13,4597.95
4390.26,4525.64,4122.56,4686.15,4376.92,4066.67,4356.41,4192.31,4873.33,4393.85,4480.00,4747.18,4391.28,4602.56
4386.67,4524.62,4123.59,4683.59,4370.77,4058.97,4344.10,4159.49,4848.72,4383.08,4476.41,4738.46,4382.05,4591.79
4374.36,4512.82,4115.38,4670.77,4372.82,4056.41,4346.67,4134.87,4824.10,4369.74,4446.67,4723.59,4353.85,4571.79
4364.62,4500.51,4104.62,4659.49,4368.21,4063.08,4357.44,4129.74,4818.97,4352.82,4426.15,4711.28,4335.90,4560.51
4365.13,4505.13,4104.10,4666.15,4354.36,4067.69,4370.26,4141.03,4827.18,4337.44,4435.90,4716.92,4340.51,4564.62
4364.62,4503.08,4107.18,4669.23,4353.85,4066.15,4380.00,4161.54,4838.97,4351.28,4448.72,4726.15,4352.82,4569.74
4362.56,4494.87,4107.18,4659.49,4362.56,4069.74,4389.74,4183.08,4852.31,4384.62,4452.82,4728.21,4360.51,4572.31
4364.62,4501.03,4109.74,4660.00,4367.18,4076.92,4400.51,4197.44,4868.21,4401.54,4454.87,4731.28,4364.10,4576.41
4364.62,4508.21,4110.26,4667.69,4364.62,4078.46,4401.54,4209.23,4883.59,4388.21,4462.05,4734.87,4370.26,4578.46
4367.69,4508.21,4112.31,4673.33,4356.92,4075.38,4392.82,4221.03,4895.38,4378.46,4474.36,4733.33,4378.46,4580.51
4378.46,4516.92,4120.00,4678.46,4365.13,4076.41,4385.64,4227.69,4907.18,4410.26,4483.59,4737.44,4388.72,4587.18
4380.00,4526.67,4124.62,4679.49,4383.59,4078.97,4380.51,4224.62,4912.31,4442.05,4479.49,4743.59,4394.87,4590.77
4372.31,4525.13,4128.72,4682.05,4380.51,4071.28,4365.13,4208.72,4896.92,4427.69,4471.28,4737.44,4389.74,4587.18
4373.33,4524.62,4135.38,4690.26,4367.18,4060.51,4346.67,4187.18,4871.79,4392.82,4465.64,4729.74,4380.00,4588.21
4376.41,4527.18,4136.92,4687.69,4372.82,4056.92,4336.92,4164.62,4849.23,4369.23,4454.36,4733.33,4367.69,4587.18
4370.77,4525.64,4137.95,4680.00,4370.26,4057.95,4332.82,4142.56,4829.23,4353.33,4442.56,4734.36,4361.03,4577.44
4364.10,4518.97,4136.41,4682.56,4356.41,4055.90,4340.51,4130.77,4821.54,4345.13,4444.62,4727.69,4363.59,4570.26
4362.56,4513.33,4126.67,4683.08,4363.08,4059.49,4357.44,4140.00,4829.23,4355.90,4455.38,4724.62,4365.13,4569.74
4364.10,4515.90,4123.08,4678.97,4374.36,4071.79,4372.82,4163.59,4846.15,4388.72,4462.05,4731.79,4366.15,4570.77
4365.13,4515.38,4126.15,4675.38,4372.31,4077.95,4385.13,4188.72,4871.28,4416.41,4468.21,4740.00,4374.87,4574.36
4364.62,4511.79,4123.59,4672.82,4369.74,4078.97,4397.95,4211.28,4896.41,4416.92,4477.44,4741.03,4383.59,4582.05
4364.62,4518.46,4122.05,4673.33,4370.26,4078.46,4402.56,4228.21,4909.74,4412.31,4482.05,4738.46,4386.15,4586.15
4366.67,4522.05,4125.64,4674.36,4364.62,4078.97,4401.54,4234.36,4913.85,4415.90,4480.51,4735.38,4385.13,4585.13
4364.62,4512.82,4123.59,4671.79,4364.62,4078.46,4399.49,4227.18,4913.33,4423.59,4478.97,4734.87,4380.00,4585.64
4360.00,4511.79,4124.62,4671.79,4375.90,4071.79,4388.21,4213.33,4908.72,4429.23,4471.79,4734.36,4372.82,4585.13
4362.05,4522.05,4134.36,4675.38,4383.59,4065.64,4371.28,4194.36,4895.38,4416.92,4458.97,4728.72,4363.08,4584.10
4367.18,4526.67,4139.49,4681.54,4382.05,4066.67,4357.44,4171.28,4872.31,4387.18,4450.77,4724.10,4352.31,4582.56
4369.23,4525.64,4138.46,4691.28,4376.41,4064.62,4350.77,4154.87,4858.46,4365.64,4448.72,4723.59,4348.21,4581.03
4367.69,4526.15,4139.49,4694.36,4371.28,4057.44,4347.18,4143.59,4847.69,4360.51,4447.18,4720.51,4345.13,4576.92
4363.59,4526.15,4137.44,4687.18,4367.18,4057.44,4346.15,4135.90,4832.31,4366.67,4441.54,4717.44,4331.28,4570.77
4355.90,4515.90,4126.15,4678.46,4365.64,4061.03,4353.85,4142.05,4828.72,4371.28,4438.97,4715.38,4326.67,4569.23
4350.77,4503.59,4120.00,4672.31,4366.15,4062.05,4365.64,4160.51,4841.54,4370.26,4446.15,4717.95,4334.87,4570.77
4347.69,4503.08,4122.05,4668.21,4367.69,4062.05,4371.79,4176.92,4852.82,4375.90,4456.92,4725.13,4335.38,4570.26
4343.08,4506.15,4122.05,4664.10,4371.79,4061.03,4373.33,4187.18,4860.00,4383.08,4460.00,4728.72,4333.33,4569.74
4340.00,4506.15,4119.49,4664.62,4368.72,4062.56,4378.97,4196.92,4869.74,4386.67,4459.49,4722.56,4339.49,4570.77
4341.54,4504.62,4120.51,4668.72,4365.13,4068.72,4385.13,4204.10,4875.38,4394.87,4461.03,4717.44,4342.56,4568.21
4349.74,4505.64,4129.74,4673.85,4367.18,4070.26,4382.56,4205.13,4885.13,4405.13,4461.54,4721.03,4342.05,4568.72
4360.00,4509.74,4138.46,4676.92,4368.21,4064.62,4370.26,4204.10,4894.36,4405.64,4460.00,4724.10,4343.59,4577.95
4363.08,4512.82,4140.00,4678.97,4367.18,4058.46,4355.38,4200.51,4881.03,4383.59,4457.95,4723.08,4342.56,4580.00
4361.54,4510.26,4138.46,4677.95,4374.87,4057.44,4346.67,4186.67,4862.05,4355.38,4457.95,4723.59,4340.51,4573.85
4358.46,4507.69,4139.49,4676.92,4377.44,4058.46,4344.10,4168.72,4856.92,4362.05,4452.31,4722.56,4341.03,4569.74
4357.95,4515.90,4141.03,4682.05,4367.18,4057.95,4344.62,4162.56,4850.26,4377.95,4442.56,4717.44,4337.44,4569.74
4360.00,4520.51,4141.54,4685.64,4366.15,4061.54,4349.74,4163.59,4839.49,4363.59,4439.49,4713.33,4331.79,4568.21
4360.00,4512.82,4139.49,4682.05,4371.28,4071.79,4363.08,4171.79,4851.79,4360.00,4443.08,4715.38,4334.36,4567.18
4357.44,4508.21,4135.38,4673.33,4367.18,4075.90,4378.46,4188.21,4872.82,4376.92,4448.21,4715.38,4340.00,4569.74
4353.33,4508.21,4135.90,4665.64,4370.26,4074.87,4387.69,4200.00,4876.92,4374.87,4451.79,4713.33,4341.54,4569.23
4350.77,4506.15,4138.46,4665.13,4380.00,4076.41,4392.82,4208.21,4878.97,4376.92,4458.97,4722.56,4348.21,4568.21
4354.87,4505.64,4138.46,4670.77,4373.85,4072.31,4389.23,4216.41,4890.26,4405.64,4471.79,4734.36,4361.54,4576.92
4356.92,4506.15,4142.05,4672.82,4364.10,4062.05,4377.95,4212.82,4897.44,4411.79,4477.44,4735.38,4363.08,4586.67
4356.92,4503.59,4150.77,4669.23,4368.21,4057.44,4368.21,4203.08,4889.74,4387.18,4473.85,4735.90,4358.97,4586.15
4362.05,4505.64,4154.36,4671.79,4362.56,4052.82,4355.90,4199.49,4880.00,4377.95,4476.41,4740.00,4363.08,4586.15
4366.15,4509.74,4151.79,4675.38,4353.85,4044.62,4341.03,4187.18,4875.38,4394.87,4476.41,4732.31,4363.08,4589.23
4365.13,4505.64,4150.77,4672.82,4366.15,4045.64,4339.49,4171.28,4868.21,4401.03,4462.05,4716.92,4351.79,4577.44
4364.62,4509.23,4153.85,4676.41,4374.36,4055.38,4351.79,4178.46,4866.67,4380.51,4452.82,4713.33,4345.64,4569.23
4367.69,4521.03,4154.87,4683.08,4366.15,4062.56,4359.49,4195.38,4873.85,4368.21,4459.49,4723.59,4350.26,4575.90
4364.10,4520.00,4154.36,4682.05,4370.26,4066.15,4362.56,4204.62,4877.95,4376.92,4460.00,4733.33,4350.26,4574.87
4358.97,4516.41,4154.87,4678.46,4380.00,4071.28,4371.28,4211.79,4873.85,4368.21,4456.92,4742.56,4346.67,4572.31
4361.03,4521.54,4156.41,4681.03,4368.72,4075.38,4380.51,4214.87,4874.87,4356.92,4467.69,4750.77,4353.33,4583.59
4363.08,4517.44,4157.95,4680.00,4363.59,4075.90,4384.62,4217.44,4889.74,4388.21,4474.36,4746.15,4365.64,4591.79
4358.46,4506.15,4153.33,4667.69,4377.95,4073.33,4382.56,4216.92,4898.46,4408.72,4468.21,4734.87,4369.23,4586.67
4356.92,4507.69,4146.15,4659.49,4380.00,4068.21,4378.46,4208.72,4894.36,4387.69,4467.18,4729.74,4367.18,4584.62
4365.64,4511.79,4148.21,4665.13,4369.74,4060.51,4373.33,4198.97,4888.72,4386.67,4477.44,4729.23,4370.77,4589.23
4367.69,4507.69,4153.85,4671.28,4367.18,4052.82,4361.54,4190.26,4886.15,4404.10,4476.92,4723.08,4369.23,4587.18
4360.51,4507.69,4153.85,4672.31,4355.38,4046.15,4350.26,4181.03,4876.41,4392.31,4462.56,4716.41,4355.90,4575.90
4356.41,4505.64,4155.38,4671.28,4337.95,4041.54,4350.26,4179.49,4864.62,4377.95,4451.79,4722.05,4342.05,4568.21
4355.90,4492.82,4157.44,4664.62,4347.18,4043.59,4359.49,4182.05,4859.49,4380.00,4446.15,4730.77,4332.82,4569.23
4354.87,4490.77,4153.85,4658.97,4372.31,4055.38,4369.74,4180.00,4857.44,4362.05,4444.62,4724.10,4330.77,4567.69
4354.36,4504.10,4150.26,4662.56,4373.85,4066.15,4377.44,4181.54,4857.44,4348.72,4446.15,4717.95,4338.46,4567.69
4354.36,4505.13,4150.26,4666.15,4357.44,4066.15,4386.15,4187.18,4866.15,4373.85,4449.23,4720.51,4346.67,4570.77
4351.28,4490.77,4139.49,4658.97,4358.97,4069.23,4394.87,4185.64,4874.36,4395.90,4445.64,4710.77,4339.49,4560.00
4344.10,4489.74,4123.08,4647.18,4371.28,4076.41,4401.03,4190.77,4874.87,4386.67,4438.46,4697.44,4331.79,4551.79
4343.08,4502.05,4117.44,4646.67,4368.21,4071.79,4401.54,4198.97,4874.87,4377.95,4446.15,4701.03,4348.72,4563.59
4349.74,4509.23,4126.67,4662.05,4364.62,4066.15,4391.28,4193.33,4878.46,4382.05,4461.03,4705.64,4367.18,4573.85
4356.41,4508.72,4141.54,4673.85,4373.33,4067.18,4376.92,4183.08,4877.44,4385.64,4461.03,4706.67,4365.13,4568.72
4360.00,4507.69,4156.92,4672.31,4374.36,4060.51,4366.15,4181.03,4872.82,4385.64,4454.87,4715.38,4355.38,4564.62
4366.67,4510.77,4172.82,4674.36,4358.97,4052.31,4358.46,4180.51,4875.38,4379.49,4465.64,4733.85,4358.46,4574.87
4369.74,4506.15,4176.41,4678.97,4349.74,4058.46,4357.95,4186.15,4880.51,4380.51,4479.49,4748.21,4364.10,4585.13
4356.92,4495.38,4162.05,4670.77,4353.33,4066.67,4366.15,4197.95,4878.97,4395.90,4466.67,4741.03,4356.41,4575.38
4345.13,4486.15,4149.23,4654.36,4362.05,4068.72,4375.38,4201.03,4873.33,4389.74,4448.21,4720.51,4342.56,4555.38
4336.41,4476.92,4139.49,4644.62,4365.13,4072.31,4386.15,4200.00,4872.31,4367.18,4451.28,4710.77,4337.95,4550.77
4323.59,4476.92,4124.10,4643.59,4355.90,4074.36,4396.92,4203.08,4876.41,4376.41,4456.41,4707.18,4344.10,4553.33
4322.05,4487.18,4116.41,4645.13,4348.72,4074.36,4394.87,4202.56,4874.36,4390.26,4449.74,4701.03,4350.77,4552.82
4333.33,4491.79,4116.92,4645.13,4355.90,4079.49,4384.62,4201.03,4872.82,4369.23,4451.79,4701.54,4355.90,4559.49
4341.03,4489.23,4122.56,4646.15,4361.54,4084.10,4383.08,4202.05,4883.08,4368.21,4467.18,4711.28,4365.13,4570.77
4345.13,4492.82,4137.44,4651.79,4359.49,4080.51,4384.10,4201.54,4893.33,4406.15,4474.36,4724.62,4377.44,4580.00
4355.38,4496.41,4157.95,4661.54,4359.49,4076.92,4379.49,4200.00,4895.38,4417.44,4477.44,4736.92,4384.62,4587.18
4360.00,4493.85,4166.67,4665.64,4355.38,4076.41,4376.41,4197.95,4890.26,4396.92,4478.46,4738.97,4378.97,4586.67
4357.44,4489.74,4160.51,4658.46,4348.72,4070.77,4379.49,4196.92,4883.08,4394.87,4464.10,4731.79,4364.10,4575.38
4354.87,4489.74,4156.41,4651.28,4347.69,4067.69,4382.56,4199.49,4878.46,4396.41,4455.38,4724.62,4357.95,4569.23
4351.28,4485.64,4152.31,4647.69,4348.72,4069.74,4378.46,4201.03,4877.95,4380.00,4460.00,4722.05,4358.46,4568.72
4348.72,4478.46,4142.05,4646.67,4352.31,4072.31,4377.95,4199.49,4872.31,4378.46,4450.26,4717.44,4350.77,4562.56
4347.69,4482.56,4133.33,4649.23,4356.41,4074.87,4387.18,4199.49,4868.21,4389.74,4437.95,4710.26,4349.23,4560.00
4345.64,4492.82,4135.38,4651.28,4355.38,4076.41,4392.31,4202.56,4881.03,4383.59,4449.23,4709.74,4360.00,4564.10
4346.15,4490.26,4135.38,4648.72,4357.95,4076.92,4390.77,4210.26,4893.85,4379.49,4465.13,4716.41,4370.26,4569.23
4354.87,4490.26,4136.92,4653.85,4358.97,4081.03,4390.77,4218.97,4894.36,4388.72,4471.28,4726.15,4382.56,4580.51
4372.31,4505.13,4156.41,4669.23,4350.26,4085.13,4391.28,4214.87,4894.36,4398.46,4478.97,4734.36,4396.41,4600.00
4380.51,4510.77,4172.31,4670.77,4355.90,4083.08,4385.13,4202.05,4895.38,4406.15,4482.05,4742.56,4394.36,4606.15
4375.38,4504.62,4171.28,4664.62,4364.10,4077.95,4375.90,4198.46,4893.85,4411.79,4476.41,4748.72,4383.59,4593.85
4371.79,4502.05,4168.72,4667.69,4350.77,4072.82,4375.38,4200.51,4891.28,4405.13,4473.85,4747.69,4385.13,4591.28
4374.87,4503.08,4171.28,4669.74,4348.21,4072.82,4380.51,4198.97,4885.13,4384.62,4476.92,4741.54,4388.21,4595.90
4371.28,4505.13,4169.74,4663.08,4363.59,4074.87,4376.92,4200.00,4879.49,4380.00,4475.38,4734.87,4384.62,4592.82
4362.56,4502.05,4160.51,4660.51,4357.95,4068.21,4366.67,4197.44,4873.33,4390.26,4464.62,4725.13,4378.46,4584.10
4355.38,4491.28,4150.26,4663.59,4346.15,4063.08,4369.74,4183.59,4860.00,4376.92,4453.85,4708.21,4368.72,4571.28
4354.36,4490.26,4147.69,4661.03,4357.95,4071.79,4380.00,4181.03,4865.13,4362.56,4453.85,4702.05,4369.23,4567.18
4360.51,4505.13,4150.77,4662.05,4368.72,4082.05,4384.10,4196.41,4889.74,4389.23,4462.56,4709.74,4386.67,4579.49
4366.67,4509.74,4152.82,4667.18,4365.64,4081.54,4382.56,4204.62,4894.87,4402.05,4469.74,4717.95,4396.41,4590.77
4369.74,4505.13,4160.00,4670.77,4361.54,4082.56,4381.03,4202.56,4889.23,4390.26,4473.85,4726.67,4391.79,4592.82
4374.36,4509.23,4171.79,4674.87,4368.21,4089.23,4385.64,4202.56,4901.03,4405.13,4474.36,4735.38,4393.33,4598.97
4376.41,4510.77,4172.31,4675.90,4378.97,4091.28,4391.28,4201.03,4902.05,4398.46,4475.38,4735.90,4397.95,4603.59
4380.51,4512.82,4168.21,4676.92,4378.97,4090.26,4389.74,4200.00,4894.36,4381.03,4485.13,4736.92,4402.05,4602.05
4383.59,4520.00,4171.79,4677.44,4372.82,4090.26,4383.08,4203.59,4905.13,4413.33,4488.72,4743.59,4409.74,4606.15
4378.46,4514.87,4170.77,4674.36,4372.31,4085.13,4374.87,4204.62,4906.67,4435.90,4479.49,4737.95,4409.23,4603.59
4371.28,4503.59,4160.00,4667.69,4372.31,4075.38,4370.26,4202.05,4890.26,4411.28,4474.87,4726.15,4400.00,4590.77
4368.72,4501.54,4154.87,4664.10,4362.05,4074.36,4374.36,4201.03,4884.62,4394.36,4477.44,4727.69,4396.41,4583.08
4367.69,4503.59,4155.90,4668.72,4347.18,4080.51,4382.56,4203.08,4891.79,4384.10,4474.87,4730.77,4398.46,4586.67
4367.69,4502.56,4156.92,4669.74,4353.33,4081.54,4383.08,4202.56,4891.79,4372.31,4475.90,4724.62,4399.49,4593.33
4371.79,4505.64,4154.87,4661.54,4376.92,4081.54,4375.38,4192.82,4888.21,4391.79,4473.85,4718.97,4400.00,4591.79
4375.90,4506.15,4151.79,4658.97,4383.59,4094.36,4373.33,4185.13,4890.26,4410.77,4460.51,4717.95,4397.95,4591.79
4384.10,4504.62,4156.41,4666.15,4367.69,4108.21,4377.95,4186.67,4893.85,4400.00,4461.03,4715.38,4397.95,4597.95
4393.33,4514.36,4166.15,4676.41,4361.54,4108.72,4375.90,4184.62,4890.26,4387.69,4474.36,4722.05,4406.67,4604.10
4394.87,4523.59,4173.33,4685.13,4369.23,4105.64,4372.31,4179.49,4882.56,4389.74,4479.49,4732.82,4412.82,4602.05
4388.72,4516.41,4169.74,4680.51,4375.38,4108.21,4378.46,4181.03,4876.41,4388.72,4470.26,4725.64,4402.56,4593.85
4381.54,4500.51,4161.54,4665.13,4372.82,4108.72,4380.51,4182.56,4865.64,4362.05,4460.51,4714.87,4385.13,4586.15
4379.49,4491.79,4160.51,4660.00,4367.69,4102.56,4371.79,4183.59,4861.03,4341.54,4465.13,4723.08,4382.56,4583.08
4379.49,4490.77,4166.67,4663.59,4364.62,4095.90,4366.15,4189.74,4871.28,4371.79,4476.92,4735.38,4394.36,4588.72
4382.56,4492.31,4171.79,4668.72,4355.38,4094.36,4368.21,4194.87,4883.59,4417.44,4480.00,4736.41,4402.05,4595.38
4380.51,4492.31,4169.23,4670.77,4346.67,4093.33,4368.21,4190.26,4880.00,4408.72,4474.36,4731.79,4398.97,4592.31
4364.62,4490.26,4160.00,4664.10,4355.38,4091.79,4365.64,4177.95,4866.15,4372.31,4471.28,4725.13,4394.36,4584.62
4353.33,4487.69,4152.82,4653.85,4369.74,4098.97,4364.62,4169.74,4864.62,4374.87,4470.77,4720.51,4395.90,4586.15
4358.97,4491.28,4157.95,4656.41,4368.72,4108.21,4364.10,4168.21,4874.36,4380.00,4472.31,4723.59,4402.56,4594.87
4367.18,4500.00,4169.23,4669.74,4353.85,4101.54,4364.62,4169.23,4877.44,4356.41,4478.97,4730.77,4412.82,4602.05
4364.62,4499.49,4169.23,4672.31,4350.26,4092.31,4365.64,4169.23,4874.36,4361.54,4478.46,4728.72,4413.85,4605.13
4360.00,4491.79,4161.03,4656.41,4363.59,4095.38,4366.15,4168.21,4874.87,4389.74,4463.08,4721.54,4402.56,4599.49
4356.92,4492.31,4154.87,4645.64,4371.79,4096.92,4367.18,4166.15,4867.18,4385.13,4452.31,4716.92,4393.33,4592.31
4351.79,4488.21,4153.33,4652.31,4366.15,4092.82,4370.77,4163.08,4857.95,4365.13,4457.95,4713.33,4390.26,4583.59
4348.72,4476.41,4155.90,4657.95,4354.36,4088.72,4372.31,4166.15,4862.05,4361.03,4460.00,4713.33,4385.13,4573.33
4350.77,4475.90,4162.05,4657.44,4348.21,4085.64,4371.79,4169.74,4863.59,4355.90,4457.44,4720.00,4386.67,4575.38
4351.28,4478.97,4163.59,4654.87,4348.21,4081.54,4367.18,4171.79,4856.92,4358.46,4461.54,4722.56,4388.72,4580.51
4345.13,4472.31,4156.41,4649.74,4350.26,4080.51,4366.15,4176.41,4854.36,4371.28,4460.51,4717.44,4380.00,4573.33
4341.54,4470.26,4152.31,4646.15,4349.74,4084.10,4376.41,4184.62,4857.95,4364.62,4452.82,4715.90,4372.82,4566.67
4341.54,4471.28,4154.36,4645.13,4351.79,4087.69,4380.51,4189.23,4859.49,4347.69,4445.64,4714.36,4368.72,4566.67
4342.56,4470.77,4154.87,4646.15,4351.28,4089.74,4376.41,4182.56,4856.92,4350.26,4442.05,4712.31,4360.00,4568.21
4343.59,4475.38,4154.36,4649.23,4350.77,4090.77,4380.51,4172.31,4861.54,4367.69,4445.13,4712.82,4356.41,4566.15
4341.03,4476.41,4155.90,4646.15,4359.49,4093.33,4387.18,4171.79,4872.31,4372.82,4444.62,4708.72,4357.44,4558.97
4343.59,4474.36,4153.85,4643.59,4371.28,4100.00,4385.13,4180.51,4873.85,4372.31,4438.46,4704.10,4353.85,4556.41
4351.79,4484.62,4153.85,4655.38,4374.36,4105.64,4381.54,4186.15,4875.38,4376.41,4446.15,4710.26,4358.46,4568.21
4353.85,4494.36,4162.56,4667.18,4369.74,4102.05,4377.44,4181.54,4877.95,4375.38,4463.08,4721.54,4367.69,4575.38
4350.77,4489.74,4165.64,4663.08,4367.69,4093.33,4371.79,4171.28,4866.67,4376.92,4456.92,4718.46,4361.03,4570.26
4350.77,4484.62,4157.44,4662.05,4365.13,4090.77,4373.33,4165.64,4854.87,4384.62,4444.62,4710.77,4350.77,4569.23
4349.74,4483.59,4154.36,4664.10,4360.51,4092.31,4373.85,4174.87,4856.92,4375.38,4453.33,4715.38,4349.23,4568.21
4342.56,4470.26,4154.87,4652.31,4368.21,4090.26,4371.79,4186.15,4859.49,4367.18,4456.41,4720.00,4345.13,4558.97
4336.41,4457.44,4153.85,4640.51,4373.33,4084.62,4371.28,4194.87,4864.10,4378.46,4448.21,4716.92,4339.49,4556.41
4338.97,4464.10,4158.46,4645.13,4358.97,4081.54,4373.85,4209.23,4872.31,4379.49,4452.82,4717.44,4339.49,4560.51
4346.15,4472.82,4167.18,4651.79,4352.31,4084.62,4377.44,4220.00,4875.90,4371.79,4460.00,4720.00,4339.49,4562.56
4353.33,4474.87,4168.72,4656.41,4358.97,4088.72,4383.59,4218.97,4882.56,4389.74,4457.44,4720.00,4342.05,4565.13
4357.44,4477.44,4169.23,4663.59,4363.08,4089.23,4388.21,4220.51,4893.33,4403.08,4458.97,4721.03,4352.82,4571.28
4354.87,4478.97,4168.21,4661.03,4368.21,4088.21,4383.59,4220.51,4889.74,4382.05,4463.08,4719.49,4358.97,4570.77
4350.77,4474.87,4166.67,4654.36,4372.31,4088.21,4372.82,4207.18,4877.44,4367.69,4460.00,4715.90,4356.92,4566.67
4351.79,4474.36,4167.18,4656.92,4365.13,4089.23,4366.15,4196.41,4873.33,4377.95,4460.51,4717.95,4355.90,4569.23
4352.31,4475.38,4160.00,4656.41,4362.05,4089.74,4366.67,4196.92,4871.28,4391.79,4461.03,4718.46,4358.46,4571.28
4349.23,4472.82,4155.38,4647.18,4371.79,4088.72,4368.21,4198.46,4871.79,4396.92,4458.46,4715.90,4362.05,4572.82
4355.38,4481.03,4163.08,4647.18,4376.92,4088.72,4369.74,4198.46,4874.36,4388.72,4465.64,4718.97,4369.23,4580.51
4367.18,4491.28,4170.77,4658.97,4368.21,4092.31,4374.87,4205.64,4877.44,4391.28,4477.44,4728.21,4377.95,4589.23
4367.69,4489.74,4176.41,4664.62,4363.08,4092.82,4381.54,4215.38,4878.46,4400.51,4478.97,4732.31,4382.05,4589.74
4365.64,4485.64,4183.08,4661.03,4367.69,4085.13,4382.56,4218.97,4876.92,4389.23,4474.87,4733.33,4379.49,4587.18
4369.74,4488.72,4185.64,4661.54,4363.59,4079.49,4379.49,4218.46,4884.62,4383.08,4477.95,4735.38,4375.90,4586.67
4371.28,4493.33,4185.64,4668.21,4356.41,4085.13,4382.56,4218.97,4892.31,4403.59,4474.36,4729.23,4373.33,4586.15
4366.67,4488.72,4183.08,4665.13,4368.21,4091.28,4388.21,4219.49,4884.62,4405.13,4460.51,4718.97,4367.18,4581.54
4365.13,4483.08,4172.82,4658.46,4381.54,4091.79,4387.69,4212.31,4876.41,4385.64,4456.92,4714.36,4364.10,4575.90
4364.62,4484.62,4167.18,4660.00,4377.44,4093.85,4384.62,4201.03,4878.46,4385.13,4459.49,4710.26,4365.64,4569.74
4363.08,4489.74,4168.72,4662.05,4371.28,4095.90,4382.05,4197.44,4876.92,4386.15,4458.46,4708.21,4364.62,4569.23
4365.13,4490.26,4170.77,4661.03,4374.87,4093.85,4380.00,4198.46,4872.31,4375.90,4465.13,4713.85,4366.15,4573.85
4371.79,4489.74,4178.97,4662.56,4374.36,4093.33,4380.51,4200.00,4874.36,4384.10,4473.85,4721.54,4376.92,4583.08
4372.82,4489.74,4184.62,4660.00,4366.67,4090.77,4377.95,4209.74,4876.92,4405.13,4476.92,4727.69,4389.74,4592.82
4372.31,4487.18,4182.56,4652.31,4366.67,4083.08,4371.79,4218.97,4884.62,4409.23,4485.64,4737.44,4394.87,4595.90
4380.00,4488.21,4188.72,4657.95,4372.82,4081.54,4370.77,4219.49,4890.77,4394.36,4495.38,4748.72,4400.00,4603.59
4387.69,4493.33,4201.03,4670.77,4375.38,4083.59,4368.72,4220.00,4885.13,4392.31,4495.38,4756.92,4404.10,4613.85
4384.10,4494.36,4199.49,4671.28,4373.85,4082.05,4362.05,4216.92,4878.46,4406.15,4491.79,4756.41,4400.51,4609.23
4377.95,4492.82,4190.26,4664.62,4371.28,4082.05,4362.05,4205.64,4875.90,4395.38,4491.28,4745.64,4394.87,4598.46
4377.44,4493.85,4186.67,4665.64,4369.23,4083.59,4366.67,4197.95,4871.79,4370.77,4489.23,4737.95,4394.87,4597.95
4373.85,4493.33,4186.15,4665.13,4372.31,4083.08,4368.21,4192.31,4870.26,4376.41,4482.05,4737.44,4391.79,4597.44
4369.74,4488.72,4183.59,4656.41,4375.90,4085.64,4373.85,4186.15,4873.33,4388.21,4473.33,4733.33,4380.51,4586.67
4371.79,4487.69,4182.05,4656.92,4370.26,4089.74,4383.08,4185.64,4874.87,4384.62,4469.74,4724.10,4380.51,4582.05
4369.74,4489.23,4177.95,4656.41,4368.72,4088.21,4384.10,4186.67,4873.85,4388.72,4470.77,4721.54,4391.79,4587.18
4366.67,4487.69,4175.38,4649.74,4372.31,4083.59,4377.44,4188.72,4873.85,4405.64,4475.90,4728.21,4396.41,4591.79
4373.85,4488.72,4181.03,4655.38,4374.36,4083.08,4369.74,4200.00,4882.56,4408.21,4489.23,4737.44,4402.56,4595.90
4378.46,4492.82,4185.64,4664.10,4376.92,4084.10,4365.64,4217.44,4902.05,4409.23,4495.38,4746.15,4409.23,4601.03
4373.33,4492.82,4185.13,4660.51,4382.56,4083.59,4370.26,4226.67,4912.31,4419.49,4494.87,4749.23,4408.72,4602.05
4369.74,4489.74,4184.10,4657.44,4382.56,4086.15,4374.36,4224.62,4903.59,4410.26,4497.44,4748.72,4406.15,4600.51
4370.26,4491.28,4185.13,4665.13,4375.38,4089.74,4368.21,4218.97,4891.79,4389.23,4498.46,4746.67,4404.10,4601.54
4369.74,4494.36,4185.64,4666.15,4372.31,4086.67,4364.10,4215.38,4893.33,4387.69,4491.79,4743.08,4399.49,4596.92
4365.64,4486.67,4180.00,4655.38,4372.31,4077.95,4364.10,4203.59,4894.36,4403.08,4481.54,4737.95,4392.82,4587.18
4357.95,4475.38,4172.82,4646.15,4372.31,4073.85,4362.56,4185.64,4882.05,4404.62,4473.33,4728.21,4384.10,4581.54
4358.97,4479.49,4176.41,4650.26,4375.90,4078.46,4366.15,4185.64,4876.92,4393.33,4473.85,4722.05,4378.97,4581.03
4367.69,4491.79,4185.64,4659.49,4380.00,4083.59,4372.31,4200.00,4887.18,4392.31,4477.95,4726.67,4384.62,4582.56
4367.69,4492.82,4186.15,4657.44,4382.05,4086.15,4375.90,4203.59,4892.31,4397.95,4476.41,4726.15,4388.72,4584.10
4363.08,4487.69,4180.51,4652.82,4382.05,4086.15,4379.49,4205.64,4888.21,4400.51,4471.79,4720.51,4389.74,4581.54
4365.13,4490.26,4181.54,4657.44,4377.44,4085.64,4382.56,4215.90,4890.77,4394.87,4475.38,4725.64,4396.92,4582.56
4371.79,4493.85,4186.67,4665.64,4372.82,4083.08,4379.49,4220.51,4890.77,4388.72,4482.56,4733.85,4401.03,4590.26
4371.79,4491.79,4187.69,4665.64,4371.28,4077.44,4370.26,4215.38,4878.46,4377.44,4480.00,4733.85,4395.90,4590.77
4371.28,4489.23,4184.62,4658.46,4369.74,4074.36,4360.51,4213.33,4869.74,4359.49,4473.85,4732.82,4389.23,4585.64
4372.31,4489.74,4185.64,4655.90,4373.85,4074.36,4355.38,4213.85,4875.38,4372.31,4481.03,4735.38,4390.77,4585.64
4370.26,4490.77,4189.23,4658.97,4378.97,4075.38,4358.46,4215.90,4887.69,4405.13,4488.72,4740.00,4398.46,4590.26
4366.15,4490.77,4187.69,4661.03,4376.92,4079.49,4368.72,4216.92,4890.77,4401.54,4479.49,4741.54,4396.41,4589.23
4366.15,4490.26,4185.64,4657.44,4375.90,4087.69,4379.49,4215.38,4890.26,4386.15,4475.38,4736.41,4390.77,4584.10
4368.21,4491.28,4185.64,4654.87,4382.05,4093.85,4384.10,4224.62,4902.56,4397.44,4488.72,4732.82,4397.44,4588.72
4366.15,4492.82,4186.15,4656.92,4383.59,4092.82,4380.51,4231.28,4905.64,4387.69,4493.33,4734.87,4404.10,4596.41
4364.10,4491.28,4184.62,4656.41,4381.03,4089.23,4374.87,4222.56,4892.31,4369.23,4483.08,4732.82,4398.46,4589.23
4367.18,4490.77,4181.54,4656.41,4383.08,4087.69,4372.31,4216.92,4896.41,4402.56,4477.44,4727.69,4394.87,4582.05
4373.85,4494.36,4185.64,4662.56,4378.97,4089.23,4373.85,4222.05,4905.64,4427.18,4481.03,4730.77,4400.00,4591.28
4375.38,4494.36,4194.87,4666.67,4373.33,4088.21,4372.82,4220.00,4887.69,4389.74,4480.00,4735.38,4401.54,4596.41
4372.31,4491.79,4200.51,4663.59,4374.87,4083.08,4372.31,4211.79,4869.74,4360.51,4475.38,4735.38,4396.41,4588.21
4375.90,4492.82,4198.97,4663.08,4376.41,4077.95,4372.31,4211.28,4873.33,4377.95,4476.41,4734.87,4392.31,4587.18
4374.36,4491.28,4192.82,4662.05,4371.79,4072.82,4367.18,4211.79,4873.85,4375.38,4477.44,4734.36,4390.26,4589.74
4366.67,4486.15,4193.33,4656.41,4370.77,4072.82,4366.67,4211.28,4868.21,4345.13,4475.38,4740.00,4386.67,4586.15
4370.77,4487.69,4201.54,4658.46,4371.79,4075.38,4372.31,4219.49,4872.82,4354.87,4475.90,4749.23,4389.23,4590.77
4378.46,4492.31,4200.00,4666.15,4365.13,4076.41,4375.38,4230.77,4885.64,4391.28,4479.49,4747.69,4397.95,4598.46
4370.77,4490.26,4187.18,4661.03,4366.15,4083.08,4377.95,4234.87,4896.41,4387.18,4477.44,4735.38,4394.87,4591.28
4362.56,4488.21,4182.56,4649.74,4378.46,4091.28,4383.59,4233.85,4904.62,4368.72,4473.85,4726.67,4387.18,4581.03
4369.23,4492.82,4186.67,4650.77,4383.59,4090.26,4384.10,4235.90,4907.69,4385.64,4475.38,4724.10,4391.79,4583.08
4372.31,4495.38,4186.67,4657.44,4377.44,4087.69,4379.49,4232.82,4900.00,4390.26,4476.41,4722.05,4396.92,4588.21
4369.74,4492.31,4184.62,4661.03,4369.23,4087.18,4381.03,4223.08,4887.18,4364.10,4475.38,4727.69,4391.28,4585.64
4370.26,4492.31,4186.67,4663.59,4366.15,4082.56,4381.03,4216.92,4880.51,4348.72,4475.38,4733.85,4387.69,4583.08
4368.72,4490.77,4186.67,4658.46,4368.72,4076.41,4373.85,4207.69,4872.31,4352.82,4473.33,4729.23,4386.15,4578.97
4365.64,4481.54,4184.62,4649.23,4374.36,4072.82,4369.23,4196.41,4861.03,4356.41,4462.56,4725.13,4379.49,4572.82
4368.72,4475.38,4190.26,4651.28,4373.85,4073.85,4372.31,4196.41,4859.49,4360.00,4456.41,4731.28,4379.49,4576.41
4371.28,4481.03,4199.49,4657.95,4362.56,4073.33,4374.87,4197.95,4861.03,4358.46,4466.15,4735.38,4386.67,4584.62
4367.69,4489.23,4202.05,4661.03,4358.46,4068.72,4373.85,4200.00,4863.08,4343.08,4476.41,4733.33,4384.10,4584.10
4366.67,4490.77,4196.41,4661.03,4365.13,4070.26,4372.82,4216.92,4877.95,4343.59,4474.87,4734.87,4385.64,4583.59
4364.62,4487.69,4190.26,4654.87,4367.69,4074.87,4370.26,4236.41,4900.51,4374.87,4475.38,4736.92,4396.41,4587.18
4364.62,4487.18,4191.28,4649.74,4368.72,4078.97,4372.31,4243.59,4908.72,4386.67,4487.18,4735.90,4401.54,4588.21
4368.21,4490.26,4195.90,4658.46,4373.85,4086.15,4378.46,4249.74,4908.21,4366.15,4490.26,4740.00,4401.03,4588.21
4367.18,4493.85,4192.31,4666.67,4374.36,4090.77,4378.46,4250.26,4908.21,4367.18,4480.51,4735.38,4398.46,4588.21
4364.62,4493.33,4184.62,4661.54,4374.36,4090.26,4382.56,4242.05,4902.05,4386.15,4473.85,4722.56,4391.79,4582.56
4362.56,4490.77,4185.64,4655.90,4383.08,4091.79,4390.77,4229.74,4890.26,4373.33,4467.18,4716.92,4384.62,4576.41
4359.49,4488.21,4180.51,4653.33,4386.15,4095.38,4388.72,4210.77,4874.87,4346.67,4449.23,4708.72,4377.44,4566.67
4356.41,4486.67,4171.28,4652.31,4380.00,4092.82,4383.59,4195.90,4861.54,4340.00,4437.44,4694.36,4363.08,4553.33
4356.41,4487.69,4174.87,4653.85,4378.46,4086.15,4383.08,4193.33,4854.36,4334.36,4444.10,4695.90,4363.08,4553.33
4361.54,4488.72,4183.08,4656.41,4377.44,4076.92,4377.95,4192.31,4852.82,4322.56,4455.90,4715.38,4380.51,4570.26
4370.77,4493.85,4191.79,4668.72,4366.15,4071.79,4371.28,4200.00,4863.59,4336.41,4471.79,4733.33,4395.38,4585.64
4374.36,4502.05,4199.49,4675.90,4362.56,4072.82,4368.72,4214.36,4883.08,4368.72,4488.72,4739.49,4403.08,4588.21
4372.31,4504.10,4199.49,4665.13,4377.95,4072.82,4363.08,4221.03,4890.26,4377.95,4491.79,4736.92,4408.72,4588.21
4377.95,4509.23,4199.49,4667.69,4386.67,4075.38,4360.51,4227.18,4895.90,4371.28,4494.87,4742.05,4415.90,4599.49
4387.69,4523.59,4207.18,4687.18,4381.54,4083.59,4367.69,4242.56,4918.46,4386.15,4503.59,4755.38,4425.64,4609.74
4388.21,4527.69,4208.21,4686.67,4387.69,4090.77,4373.85,4248.72,4931.28,4402.05,4502.56,4752.82,4430.77,4608.21
4379.49,4514.87,4201.54,4674.87,4393.33,4092.31,4372.31,4237.95,4920.00,4387.69,4492.82,4740.51,4422.56,4602.05
4375.38,4508.21,4198.97,4675.90,4387.18,4092.82,4372.82,4224.62,4905.64,4371.28,4482.56,4731.79,4411.79,4595.38
4376.41,4509.23,4197.44,4674.87,4387.18,4092.31,4378.97,4214.87,4897.95,4370.77,4474.87,4721.54,4412.82,4586.67
4375.90,4508.21,4198.46,4671.28,4387.18,4093.85,4389.74,4206.67,4891.79,4350.77,4475.38,4716.41,4412.82,4584.62
4371.79,4506.67,4197.95,4671.28,4374.36,4093.85,4389.23,4199.49,4880.51,4331.79,4478.97,4719.49,4406.15,4585.13
4367.69,4501.54,4189.23,4666.15,4370.77,4087.18,4376.92,4203.08,4874.36,4353.33,4471.28,4717.95,4401.54,4582.05
4364.62,4493.85,4184.62,4661.54,4381.03,4084.10,4370.77,4213.33,4884.62,4374.36,4464.62,4720.00,4398.46,4581.54
4364.10,4491.79,4192.82,4663.59,4382.05,4087.18,4375.90,4217.44,4892.31,4362.05,4470.77,4730.77,4396.41,4581.03
4366.67,4492.82,4198.97,4663.59,4378.46,4085.13,4374.36,4217.44,4881.54,4345.64,4475.38,4734.87,4394.87,4580.00
4368.72,4494.36,4195.90,4661.03,4380.51,4078.97,4363.08,4214.87,4869.74,4335.90,4474.36,4732.82,4393.33,4580.51
4374.87,4502.56,4196.92,4664.10,4376.41,4077.95,4358.97,4216.92,4881.03,4346.15,4480.51,4735.38,4400.51,4587.69
4384.10,4512.82,4202.56,4674.36,4374.36,4083.08,4362.56,4224.10,4905.64,4382.56,4493.33,4740.00,4416.41,4601.03
4382.56,4511.28,4201.54,4677.44,4385.64,4088.72,4369.23,4223.08,4912.31,4384.10,4492.82,4738.97,4415.90,4605.13
4374.36,4506.67,4200.51,4673.33,4392.82,4091.79,4377.44,4223.59,4907.69,4357.44,4489.23,4736.41,4402.05,4600.00
4373.85,4510.77,4202.05,4672.82,4389.74,4091.28,4381.03,4233.33,4912.82,4371.28,4488.21,4737.44,4397.95,4597.44
4370.77,4508.21,4193.33,4669.74,4390.26,4090.77,4381.54,4230.26,4911.79,4386.67,4481.03,4731.79,4396.41,4593.33
4358.97,4495.38,4182.56,4662.56,4389.23,4086.67,4385.64,4209.74,4892.82,4366.15,4475.90,4719.49,4388.21,4584.10
4355.38,4489.23,4184.10,4661.03,4379.49,4081.54,4388.21,4199.49,4877.44,4347.69,4474.87,4716.92,4380.51,4581.54
4357.95,4492.31,4188.72,4663.08,4378.97,4080.51,4381.03,4201.54,4877.44,4348.21,4472.82,4725.13,4378.97,4583.59
4358.46,4494.36,4188.21,4667.18,4390.77,4084.10,4377.95,4208.21,4882.05,4353.85,4482.56,4730.26,4386.15,4584.62
4358.46,4492.82,4187.69,4668.21,4398.97,4089.23,4380.51,4215.38,4888.72,4366.15,4493.33,4730.77,4392.82,4586.15
4356.92,4491.28,4187.69,4662.56,4395.38,4090.26,4377.44,4216.92,4892.31,4374.87,4489.23,4732.31,4391.28,4585.13
4359.49,4492.31,4190.77,4663.08,4388.21,4087.18,4371.28,4221.54,4893.85,4372.31,4489.23,4734.87,4392.31,4588.21
4367.18,4495.90,4198.97,4671.79,4386.67,4085.64,4368.72,4226.67,4895.90,4368.72,4496.92,4736.92,4399.49,4599.49
4367.69,4493.85,4202.05,4672.31,4386.67,4089.23,4365.13,4224.62,4891.79,4358.46,4491.79,4739.49,4396.92,4603.08
4367.69,4493.85,4201.54,4671.79,4382.05,4089.23,4364.10,4227.18,4895.90,4355.38,4493.33,4741.54,4394.87,4598.97
4372.31,4506.15,4203.59,4677.44,4382.05,4086.15,4365.13,4232.31,4906.67,4357.95,4506.15,4741.03,4403.59,4599.49
4371.28,4508.21,4204.62,4676.41,4387.69,4088.72,4364.62,4225.64,4904.62,4351.28,4501.03,4737.95,4404.10,4603.59
4366.67,4497.44,4202.05,4667.69,4390.26,4090.26,4361.03,4216.41,4895.90,4354.87,4488.21,4731.28,4396.92,4599.49
4366.15,4491.28,4198.97,4663.59,4388.72,4084.62,4362.56,4214.87,4900.51,4366.67,4489.74,4721.03,4395.38,4588.21
4365.13,4490.77,4196.41,4661.54,4384.10,4081.03,4371.79,4219.49,4907.69,4362.05,4492.31,4720.51,4397.95,4585.13
4366.15,4497.44,4201.03,4662.05,4373.33,4083.08,4377.44,4227.18,4903.59,4346.67,4495.90,4738.46,4401.03,4593.85
4368.72,4505.64,4209.23,4669.74,4371.28,4081.54,4378.97,4225.64,4892.31,4345.64,4504.10,4748.21,4405.64,4602.05
4367.18,4498.97,4205.64,4672.31,4381.54,4076.41,4378.97,4217.95,4881.03,4352.82,4499.49,4737.95,4403.59,4600.51
4365.64,4490.26,4204.62,4665.13,4380.51,4073.33,4374.87,4216.92,4877.44,4351.79,4487.69,4737.44,4397.44,4600.00
4368.21,4493.85,4211.79,4663.59,4372.82,4072.31,4366.15,4220.00,4882.05,4344.62,4491.28,4746.15,4400.51,4601.54
4366.67,4495.38,4208.21,4665.64,4371.28,4072.82,4361.03,4217.95,4885.64,4336.41,4496.92,4741.03,4403.08,4595.90
4359.49,4490.26,4198.97,4663.59,4367.69,4073.33,4357.44,4215.38,4886.67,4338.97,4493.33,4730.26,4397.95,4585.13
4356.41,4492.31,4202.05,4664.62,4367.69,4073.85,4353.33,4216.92,4891.79,4347.18,4490.26,4731.79,4396.41,4586.67
4360.00,4494.36,4204.62,4668.21,4374.87,4075.90,4359.49,4218.97,4898.46,4347.18,4491.79,4735.90,4402.56,4592.82
4357.44,4490.77,4198.97,4664.62,4376.41,4076.92,4367.69,4221.03,4902.05,4343.59,4491.28,4730.77,4401.54,4587.69
4355.38,4494.87,4199.49,4661.03,4375.38,4078.46,4367.18,4225.13,4907.69,4341.03,4491.28,4729.23,4396.92,4583.59
4362.05,4503.08,4203.08,4662.56,4382.56,4083.08,4367.69,4225.13,4907.18,4343.08,4488.21,4731.28,4398.97,4589.23
4362.05,4499.49,4201.54,4663.08,4385.13,4084.62,4371.28,4219.49,4894.36,4349.74,4478.46,4723.59,4398.97,4588.21
4357.44,4489.74,4196.41,4660.51,4372.82,4079.49,4372.31,4213.85,4883.08,4348.72,4477.44,4716.41,4395.38,4583.59
4363.08,4495.90,4199.49,4662.05,4367.69,4076.41,4375.90,4216.92,4887.18,4342.56,4489.74,4728.21,4401.54,4592.82
4369.74,4505.13,4209.74,4667.18,4376.92,4077.95,4380.00,4225.13,4894.87,4340.00,4496.41,4741.03,4409.74,4603.59
4366.15,4497.95,4208.21,4663.08,4382.56,4077.44,4373.85,4223.59,4889.74,4336.92,4487.18,4734.87,4401.54,4594.36
4360.00,4488.21,4201.54,4654.36,4369.23,4071.79,4370.26,4215.38,4878.97,4323.59,4477.95,4730.77,4386.15,4585.13
4356.41,4481.54,4204.62,4656.92,4352.82,4066.15,4375.38,4214.87,4872.31,4311.79,4471.79,4735.38,4376.92,4584.10
4353.33,4475.38,4205.64,4656.41,4354.36,4066.15,4371.28,4218.46,4874.36,4316.92,4463.08,4729.74,4373.33,4575.38
4351.79,4478.46,4198.46,4646.67,4364.10,4071.79,4367.18,4216.92,4882.56,4326.67,4463.08,4719.49,4373.33,4569.74
4355.38,4488.72,4199.49,4648.72,4371.28,4078.46,4373.33,4217.95,4894.36,4325.13,4475.90,4719.49,4385.64,4582.56
4357.95,4490.77,4202.05,4657.44,4371.28,4080.51,4374.36,4218.97,4898.97,4329.74,4484.10,4721.54,4398.46,4590.77
4349.74,4487.69,4190.26,4651.28,4372.31,4077.95,4367.18,4210.77,4895.90,4345.13,4476.41,4716.41,4391.28,4577.95
4343.08,4489.23,4185.13,4645.13,4374.36,4076.41,4364.62,4203.08,4891.79,4342.56,4474.36,4716.41,4383.08,4568.72
4347.18,4483.59,4190.77,4649.23,4367.18,4076.41,4369.23,4199.49,4882.56,4329.23,4474.87,4718.46,4384.10,4571.79
4348.21,4474.87,4188.72,4649.23,4361.03,4073.85,4373.85,4204.10,4876.92,4330.26,4467.69,4712.31,4380.00,4571.28
4346.15,4481.03,4188.21,4649.74,4368.21,4073.85,4374.36,4213.85,4883.08,4331.79,4466.67,4712.31,4372.82,4570.26
4351.79,4490.77,4198.97,4656.92,4372.31,4075.90,4372.82,4220.00,4892.31,4317.44,4474.36,4722.56,4379.49,4578.97
4357.95,4489.74,4206.67,4659.49,4366.67,4074.36,4377.44,4219.49,4891.79,4307.18,4478.97,4728.72,4387.18,4587.18
4355.38,4487.69,4204.62,4657.44,4364.10,4069.23,4382.56,4218.97,4883.59,4310.77,4476.92,4724.10,4384.10,4584.10
4352.31,4489.23,4201.54,4655.90,4364.62,4066.15,4375.90,4217.95,4883.08,4323.59,4470.77,4717.95,4377.44,4579.49
4351.28,4488.21,4198.97,4650.77,4367.18,4068.21,4368.21,4207.69,4885.64,4332.82,4462.05,4715.90,4376.41,4574.87
4352.82,4488.72,4198.46,4650.77,4376.41,4075.38,4370.77,4199.49,4880.00,4322.56,4464.10,4718.46,4380.51,4575.90
4356.92,4493.33,4200.00,4660.51,4375.90,4076.41,4371.28,4199.49,4873.33,4310.77,4473.85,4720.00,4383.08,4582.05
4362.05,4495.90,4200.51,4664.10,4364.10,4069.74,4368.72,4198.97,4877.44,4322.05,4473.33,4716.92,4384.10,4584.62
4362.05,4494.36,4200.00,4656.41,4370.77,4071.79,4371.79,4197.44,4880.00,4326.67,4471.79,4717.95,4385.13,4584.62
4357.95,4493.33,4201.03,4657.95,4375.38,4076.92,4373.85,4197.44,4877.44,4309.74,4476.92,4722.56,4384.10,4583.59
4357.95,4494.36,4203.59,4667.69,4358.46,4069.74,4368.72,4197.95,4871.79,4306.67,4474.87,4723.08,4383.59,4575.90
4355.90,4493.33,4204.10,4662.05,4360.00,4064.62,4363.59,4197.44,4862.05,4307.69,4467.69,4720.00,4382.05,4571.79
4348.72,4489.74,4202.56,4650.77,4377.95,4066.15,4366.67,4200.00,4867.69,4297.44,4470.77,4723.59,4378.46,4574.36
4349.23,4489.23,4203.08,4658.97,4369.23,4066.67,4376.41,4208.72,4879.49,4308.21,4475.90,4728.72,4379.49,4573.33
4351.79,4490.77,4205.13,4668.21,4351.79,4068.72,4385.13,4217.95,4876.41,4315.90,4473.85,4725.13,4381.03,4571.28
4342.56,4487.18,4198.46,4653.33,4362.56,4073.33,4384.62,4220.00,4870.77,4295.38,4465.13,4713.85,4375.90,4565.64
4337.44,4484.10,4191.79,4641.54,4372.31,4073.33,4378.46,4215.38,4877.44,4294.36,4462.56,4708.21,4372.82,4558.97
4352.31,4495.38,4202.56,4658.97,4363.59,4072.82,4373.33,4213.33,4886.67,4323.08,4469.23,4712.82,4383.08,4566.15
4367.69,4509.23,4216.92,4675.38,4367.69,4076.92,4369.23,4215.38,4892.82,4332.82,4475.90,4722.05,4396.41,4581.54
4367.69,4508.72,4216.92,4667.18,4380.51,4077.95,4365.64,4213.85,4891.79,4325.13,4476.92,4728.72,4398.46,4587.18
4365.13,4503.08,4212.82,4660.51,4378.97,4075.90,4366.67,4205.64,4881.54,4325.13,4476.41,4727.69,4396.41,4586.67
4367.69,4505.64,4215.90,4668.72,4372.31,4075.38,4371.28,4200.00,4875.38,4319.49,4477.44,4726.15,4395.90,4587.69
4368.72,4508.72,4217.95,4673.85,4368.72,4073.85,4373.85,4198.97,4875.90,4300.00,4477.44,4730.26,4395.38,4587.69
4371.28,4508.72,4217.95,4674.36,4358.97,4068.72,4372.31,4203.08,4875.90,4297.95,4478.97,4734.36,4394.87,4586.67
4369.74,4505.13,4218.46,4670.26,4357.95,4065.13,4369.23,4212.82,4875.90,4312.82,4475.90,4733.33,4391.79,4586.67
4360.00,4496.41,4215.38,4663.08,4370.26,4069.23,4369.74,4218.46,4876.41,4315.38,4470.26,4728.21,4385.64,4581.54
4355.38,4491.79,4213.85,4664.62,4370.77,4074.87,4377.44,4218.46,4878.46,4309.74,4472.82,4722.56,4386.15,4572.82
4356.41,4495.90,4211.79,4667.18,4367.18,4074.36,4380.51,4218.46,4883.59,4309.23,4474.87,4717.95,4386.67,4569.23
4356.41,4495.38,4209.74,4662.05,4369.74,4073.85,4381.03,4218.97,4888.21,4312.82,4467.69,4717.44,4383.59,4571.28
4356.92,4491.28,4211.28,4661.54,4369.23,4075.90,4382.05,4216.41,4891.28,4321.03,4465.64,4718.97,4389.23,4575.38
4356.41,4496.92,4212.82,4665.64,4364.62,4079.49,4377.95,4216.92,4891.28,4316.41,4474.87,4721.54,4399.49,4581.54
4357.95,4504.62,4211.79,4662.56,4364.62,4082.56,4374.36,4214.87,4882.56,4299.49,4477.44,4721.54,4395.90,4583.08
4364.62,4506.15,4214.36,4662.05,4367.18,4083.59,4380.00,4206.15,4876.92,4296.92,4471.28,4722.05,4386.67,4580.51
4368.21,4502.05,4217.95,4667.18,4370.26,4080.51,4383.59,4200.51,4880.51,4300.00,4472.82,4728.72,4392.82,4582.56
4368.21,4498.46,4216.92,4664.62,4372.31,4077.44,4378.97,4201.03,4875.90,4297.95,4480.00,4734.87,4401.03,4587.69
4373.33,4502.05,4223.59,4661.54,4367.18,4075.38,4378.46,4200.51,4871.79,4308.21,4478.46,4738.46,4398.46,4593.33
4377.95,4504.62,4233.33,4667.69,4360.51,4070.26,4378.97,4198.46,4874.87,4315.38,4476.41,4747.69,4396.41,4599.49
4376.92,4505.13,4235.38,4675.38,4355.90,4066.15,4373.33,4196.92,4868.21,4299.49,4478.97,4752.31,4400.51,4603.08
4375.38,4503.08,4234.36,4675.38,4351.28,4066.67,4370.26,4200.00,4863.59,4292.31,4480.51,4745.64,4400.51,4598.46
4369.74,4495.38,4231.28,4668.72,4348.72,4066.15,4371.79,4208.21,4874.87,4296.41,4475.38,4736.92,4391.79,4590.26
4359.49,4485.64,4218.46,4657.95,4352.82,4064.62,4371.79,4211.79,4879.49,4288.72,4467.69,4728.21,4381.54,4579.49
4352.82,4485.13,4201.54,4647.69,4360.00,4070.77,4372.82,4209.23,4880.51,4297.95,4465.64,4717.44,4381.54,4570.77
4355.90,4490.77,4203.08,4648.21,4364.62,4081.54,4378.46,4215.38,4892.82,4325.64,4469.74,4717.44,4393.33,4576.41
4361.03,4491.79,4214.87,4657.44,4369.23,4086.67,4384.10,4229.74,4906.67,4332.31,4474.36,4728.72,4398.46,4585.64
4362.05,4495.38,4218.97,4665.13,4363.08,4083.59,4381.54,4231.79,4907.69,4317.44,4480.51,4741.03,4397.95,4587.18
4368.21,4503.59,4223.08,4671.28,4350.77,4076.41,4375.38,4221.54,4898.97,4310.26,4493.33,4749.74,4410.26,4595.90
4372.82,4510.77,4230.26,4675.38,4358.97,4074.87,4374.36,4212.82,4891.79,4313.85,4496.41,4754.36,4423.59,4610.26
4369.74,4506.15,4229.23,4670.77,4380.00,4080.00,4380.00,4204.62,4886.67,4314.36,4484.62,4755.38,4413.33,4604.10
4362.05,4495.90,4221.03,4664.10,4380.51,4080.00,4383.59,4189.74,4869.23,4297.44,4475.38,4745.64,4395.38,4586.67
4357.95,4492.31,4219.49,4666.67,4365.13,4073.33,4380.51,4179.49,4852.31,4277.95,4473.33,4736.41,4392.82,4583.59
4358.46,4494.87,4224.62,4675.38,4354.87,4067.18,4375.90,4184.10,4862.05,4291.28,4478.97,4743.08,4404.62,4589.23
4358.97,4493.85,4225.64,4674.87,4350.26,4066.15,4372.31,4187.18,4874.36,4307.69,4487.18,4748.72,4412.82,4590.77
4354.87,4489.74,4215.38,4662.05,4351.79,4069.23,4371.79,4191.28,4872.82,4303.08,4482.05,4735.38,4406.67,4586.15
4349.23,4490.77,4202.05,4653.85,4358.46,4072.31,4373.85,4201.54,4878.97,4306.15,4474.36,4725.64,4398.97,4580.51
4347.69,4491.79,4198.46,4652.82,4365.13,4070.77,4367.69,4205.64,4889.23,4310.77,4473.33,4723.59,4400.51,4578.97
4350.77,4490.26,4199.49,4657.95,4368.21,4072.31,4358.46,4203.08,4888.21,4295.38,4476.41,4722.56,4406.67,4581.03
4354.87,4495.38,4203.59,4669.23,4365.64,4076.92,4355.90,4202.05,4887.18,4293.85,4484.10,4728.72,4409.23,4586.15
4359.49,4505.64,4211.79,4674.36,4363.08,4076.41,4358.97,4202.56,4894.36,4318.46,4491.79,4735.38,4419.49,4593.85
4362.56,4504.10,4216.92,4666.15,4366.67,4073.85,4362.05,4207.69,4896.41,4323.08,4491.79,4740.51,4428.72,4600.00
4360.51,4492.82,4216.92,4662.05,4363.08,4073.85,4368.21,4212.82,4893.85,4308.21,4490.77,4749.74,4423.59,4600.51
4360.00,4491.79,4217.44,4666.15,4350.77,4069.74,4373.85,4213.85,4890.26,4308.72,4493.85,4753.33,4421.54,4601.03
4360.51,4493.85,4220.51,4664.62,4350.26,4065.64,4373.33,4214.36,4881.54,4312.82,4493.33,4751.79,4425.13,4603.08
4359.49,4489.23,4225.13,4659.49,4355.38,4068.21,4373.85,4211.28,4875.90,4303.08,4490.26,4752.82,4420.00,4603.59
4356.41,4485.64,4224.62,4660.51,4351.28,4066.67,4373.33,4201.54,4874.36,4297.44,4489.74,4751.79,4412.82,4599.49
4357.44,4487.18,4217.44,4662.56,4347.69,4061.03,4367.69,4199.49,4873.33,4304.10,4490.77,4748.72,4414.36,4593.33
4358.97,4487.18,4215.90,4662.56,4353.85,4064.10,4367.18,4200.51,4874.36,4304.10,4491.28,4745.13,4414.36,4588.21
4357.95,4488.72,4216.41,4661.03,4356.41,4068.72,4367.69,4189.23,4872.31,4294.87,4487.18,4743.59,4410.26,4587.18
4360.51,4492.82,4216.41,4665.13,4353.33,4066.67,4358.46,4182.56,4871.28,4290.77,4487.18,4747.69,4413.33,4594.36
4366.15,4494.87,4222.56,4672.82,4360.00,4067.69,4352.31,4197.95,4883.59,4303.59,4499.49,4753.85,4417.44,4603.59
4367.69,4495.38,4227.69,4673.33,4364.10,4070.77,4358.46,4215.38,4900.51,4311.79,4509.23,4758.46,4419.49,4606.67
4361.54,4491.79,4218.97,4666.15,4357.44,4071.28,4368.72,4218.46,4898.97,4305.64,4500.00,4755.38,4414.87,4603.08
4350.77,4484.10,4208.21,4655.90,4360.51,4075.38,4380.00,4219.49,4894.36,4311.28,4481.54,4741.03,4400.51,4590.77
4343.08,4476.92,4199.49,4647.69,4368.21,4076.92,4384.10,4222.05,4895.90,4324.62,4468.72,4722.56,4382.56,4575.38
4337.95,4473.85,4189.23,4643.59,4359.49,4069.23,4377.44,4211.79,4886.15,4307.69,4458.97,4709.23,4371.28,4565.13
4339.49,4479.49,4189.74,4650.77,4348.72,4067.69,4376.92,4201.54,4876.41,4285.64,4458.46,4708.72,4371.28,4565.64
4349.74,4489.74,4205.13,4664.62,4355.38,4074.87,4382.05,4202.05,4883.59,4297.95,4472.82,4722.56,4378.46,4573.33
4359.49,4493.33,4216.41,4672.31,4364.62,4075.38,4375.38,4195.38,4884.62,4313.33,4485.13,4733.33,4387.69,4584.10
4359.49,4492.31,4216.41,4672.31,4366.67,4067.69,4360.00,4174.36,4867.69,4301.54,4481.03,4734.36,4389.74,4589.23
4356.41,4494.36,4214.87,4667.69,4368.21,4060.00,4341.03,4157.44,4856.92,4291.79,4477.44,4735.38,4388.21,4588.72
4358.97,4495.90,4215.38,4662.56,4370.77,4058.97,4327.18,4148.21,4860.00,4291.79,4487.69,4735.90,4393.33,4593.33
4360.00,4493.85,4215.38,4663.08,4367.18,4058.46,4327.69,4154.87,4865.64,4277.44,4497.44,4734.36,4400.51,4601.03
4358.97,4495.38,4213.33,4666.67,4358.46,4059.49,4341.03,4182.05,4881.54,4278.97,4496.92,4736.92,4404.10,4603.59
4353.85,4492.31,4200.00,4662.56,4360.51,4070.26,4362.56,4207.18,4902.56,4313.85,4488.72,4732.31,4400.00,4592.82
4340.00,4480.00,4182.56,4649.74,4369.23,4078.46,4380.00,4223.59,4909.23,4327.69,4476.92,4712.82,4384.10,4573.33
4326.15,4471.79,4175.90,4634.87,4368.21,4069.74,4377.44,4235.90,4905.13,4308.21,4467.18,4701.54,4369.74,4562.56
4327.18,4474.87,4181.54,4635.38,4360.00,4066.15,4374.36,4239.49,4907.18,4298.97,4472.31,4709.23,4375.38,4571.28
4337.44,4477.44,4191.28,4647.69,4355.90,4072.31,4385.13,4237.44,4908.72,4300.00,4479.49,4721.03,4386.15,4583.59
4342.05,4474.36,4201.54,4648.21,4357.95,4063.59,4381.03,4228.21,4894.87,4296.92,4477.44,4728.21,4389.23,4587.18
4346.67,4483.59,4212.82,4651.79,4357.44,4049.23,4355.38,4206.15,4877.95,4293.85,4480.51,4736.92,4392.82,4593.33
4359.49,4501.54,4225.64,4668.72,4352.31,4047.18,4340.51,4184.62,4867.69,4286.67,4491.28,4747.69,4399.49,4606.67
4370.26,4508.72,4235.90,4679.49,4346.67,4045.64,4328.72,4170.77,4859.49,4276.92,4494.87,4756.92,4407.69,4617.44
4369.74,4508.21,4236.41,4674.87,4353.33,4041.03,4307.18,4153.33,4854.36,4276.92,4493.33,4755.90,4412.82,4617.95
4363.08,4506.67,4226.67,4670.26,4364.10,4045.13,4298.46,4146.67,4857.95,4283.59,4496.41,4745.64,4409.23,4610.77
4354.87,4498.46,4212.82,4661.54,4367.18,4055.38,4307.18,4158.97,4870.26,4289.74,4491.28,4736.41,4397.95,4599.49
4344.62,4486.67,4201.54,4650.77,4366.15,4064.10,4322.05,4178.97,4887.18,4302.56,4480.00,4728.21,4392.31,4588.21
4340.51,4485.64,4198.46,4647.69,4360.00,4069.23,4341.03,4203.08,4905.13,4311.28,4477.95,4719.49,4395.38,4582.56
4341.03,4488.72,4196.92,4649.23,4351.28,4067.69,4361.03,4227.18,4918.46,4300.51,4480.51,4716.41,4395.90,4583.59
4335.90,4481.03,4188.21,4646.67,4356.41,4069.23,4371.28,4244.62,4925.64,4302.56,4475.38,4718.46,4389.23,4582.56
4332.82,4472.82,4180.51,4637.95,4369.23,4074.87,4376.92,4253.33,4922.56,4313.85,4468.72,4715.90,4384.10,4574.36
4338.46,4480.00,4188.72,4635.90,4367.69,4069.74,4374.87,4250.77,4909.74,4304.10,4469.74,4713.33,4383.08,4570.77
4343.08,4490.26,4200.00,4647.69,4351.28,4053.85,4361.54,4237.44,4897.44,4292.82,4468.72,4716.41,4379.49,4573.33
4342.05,4491.28,4202.56,4657.95,4337.95,4048.21,4351.28,4223.59,4885.64,4285.64,4458.97,4719.49,4372.82,4571.79
4342.05,4486.15,4207.18,4654.87,4340.00,4049.74,4344.10,4204.62,4869.74,4261.54,4455.90,4718.46,4370.26,4569.74
4343.59,4481.54,4211.28,4649.74,4349.74,4041.54,4328.72,4180.00,4856.41,4256.92,4465.13,4723.08,4376.41,4577.95
4343.08,4479.49,4207.18,4648.21,4351.28,4036.41,4320.51,4164.10,4849.74,4282.56,4466.67,4730.77,4382.56,4587.18
4341.03,4475.38,4202.56,4643.08,4348.21,4044.10,4331.28,4157.95,4844.62,4282.05,4456.92,4727.69,4371.79,4578.97
4340.00,4476.41,4203.08,4643.59,4344.62,4051.79,4342.56,4157.95,4849.23,4260.00,4453.33,4718.46,4360.51,4568.72
4341.54,4486.15,4201.03,4651.28,4343.59,4054.36,4349.74,4171.79,4866.15,4263.08,4458.97,4717.44,4371.28,4572.31
4339.49,4484.10,4197.44,4646.67,4348.72,4058.97,4362.56,4195.90,4882.05,4285.13,4463.59,4715.90,4381.54,4574.87
4330.77,4471.28,4195.38,4636.41,4354.36,4062.05,4369.74,4212.31,4888.21,4287.69,4461.54,4712.31,4373.85,4567.69
4332.82,4477.44,4195.90,4641.54,4356.41,4063.08,4369.23,4223.08,4888.72,4275.90,4465.64,4713.85,4374.36,4571.28
4346.67,4493.33,4202.56,4650.77,4356.92,4063.59,4368.72,4232.82,4893.33,4287.69,4476.92,4723.08,4388.21,4585.13
4350.77,4491.79,4208.72,4649.74,4357.44,4059.49,4365.64,4230.26,4896.41,4313.33,4479.49,4730.77,4392.31,4586.67
4346.15,4486.67,4210.77,4648.21,4362.05,4053.85,4358.46,4219.49,4887.69,4310.26,4475.38,4733.33,4388.21,4583.59
4353.85,4496.41,4217.44,4660.00,4357.44,4049.23,4349.74,4214.36,4877.44,4295.38,4476.92,4736.92,4391.28,4592.31
4362.56,4506.15,4224.10,4668.72,4342.56,4045.64,4343.59,4205.64,4875.90,4300.51,4481.54,4742.56,4398.46,4600.00
4354.87,4498.46,4221.03,4658.97,4346.15,4041.54,4339.49,4188.72,4876.92,4289.74,4481.54,4737.95,4396.41,4592.82
4342.05,4481.03,4205.64,4645.64,4359.49,4042.05,4340.51,4181.03,4873.33,4266.15,4475.90,4722.56,4383.08,4578.97
4333.85,4472.82,4189.23,4640.00,4358.97,4051.79,4353.33,4188.21,4873.33,4276.41,4465.64,4710.77,4371.79,4569.23
4326.67,4475.90,4184.62,4634.87,4351.79,4062.56,4371.28,4197.44,4882.56,4298.46,4454.36,4701.54,4367.69,4562.05
4317.95,4470.26,4180.00,4631.28,4355.38,4068.21,4377.95,4205.13,4892.31,4293.33,4450.26,4692.31,4365.13,4554.87
4316.92,4459.49,4171.28,4628.72,4356.41,4067.18,4375.38,4213.85,4892.82,4290.26,4455.38,4688.21,4363.59,4550.77
4325.13,4463.08,4173.85,4629.23,4349.23,4063.59,4376.92,4219.49,4891.79,4300.51,4457.44,4692.82,4368.21,4554.87
4331.79,4475.90,4186.67,4639.49,4346.15,4059.49,4375.38,4221.54,4892.82,4288.72,4458.46,4707.18,4377.44,4567.18
4334.87,4485.13,4193.33,4647.69,4353.85,4055.90,4365.64,4218.97,4885.64,4281.03,4469.23,4716.92,4385.13,4577.95
4344.10,4491.79,4199.49,4648.21,4361.03,4050.26,4352.82,4215.38,4874.87,4297.95,4482.05,4725.13,4393.85,4587.18
4354.36,4496.41,4216.41,4652.82,4350.26,4041.03,4341.03,4213.85,4876.92,4308.21,4490.26,4744.62,4408.21,4600.00
4352.82,4492.82,4222.56,4653.85,4342.05,4034.87,4338.46,4208.72,4879.49,4295.38,4494.87,4753.33,4412.82,4606.15
4346.67,4489.74,4209.23,4646.67,4347.69,4035.90,4345.13,4197.44,4867.69,4278.97,4490.26,4738.97,4402.05,4594.36
4336.41,4489.74,4201.03,4646.67,4352.31,4041.54,4355.38,4195.90,4866.67,4283.59,4478.97,4729.74,4393.85,4584.62
4327.18,4483.59,4198.97,4647.18,4349.23,4047.69,4361.54,4207.69,4884.62,4294.36,4471.79,4728.72,4389.74,4581.54
4323.08,4478.46,4188.72,4641.03,4347.69,4050.77,4367.18,4217.44,4896.92,4285.64,4467.18,4713.33,4383.08,4575.38
4321.03,4481.03,4180.51,4640.00,4351.28,4053.85,4376.41,4224.10,4902.56,4280.00,4459.49,4701.03,4376.92,4565.64
4320.51,4488.21,4183.59,4645.13,4355.90,4063.59,4384.10,4237.95,4917.44,4302.56,4459.49,4704.62,4380.51,4566.15
4325.64,4495.38,4185.64,4645.64,4365.64,4072.82,4382.05,4250.26,4928.72,4327.69,4471.28,4708.72,4397.44,4576.41
4332.31,4503.59,4189.23,4650.26,4366.15,4069.23,4370.26,4245.64,4922.05,4323.59,4480.51,4710.77,4413.85,4587.69
4336.41,4507.69,4198.46,4656.92,4357.95,4058.97,4361.03,4230.77,4907.69,4305.64,4480.00,4715.38,4411.79,4594.36
4342.05,4506.67,4203.08,4656.41,4360.51,4054.36,4356.92,4220.00,4893.85,4290.77,4475.90,4722.05,4405.13,4597.44
4350.77,4509.74,4211.28,4662.05,4365.13,4049.74,4349.23,4210.26,4886.15,4291.28,4482.56,4737.95,4413.33,4604.62
4356.92,4509.74,4225.64,4671.79,4362.05,4041.03,4335.90,4200.00,4882.56,4304.10,4494.87,4750.77,4420.51,4615.38
4358.46,4507.69,4235.38,4673.85,4353.33,4033.33,4325.64,4195.38,4874.87,4298.97,4494.36,4753.85,4415.38,4617.44
4357.95,4510.77,4234.87,4673.33,4350.26,4030.77,4325.64,4193.33,4867.18,4280.00,4481.03,4751.79,4406.67,4610.77
4353.85,4505.64,4225.13,4670.77,4353.33,4034.87,4331.79,4198.97,4871.28,4278.46,4470.77,4740.00,4396.92,4599.49
4338.46,4492.82,4212.31,4656.41,4349.74,4041.03,4342.05,4213.85,4878.97,4281.54,4460.51,4714.87,4381.54,4581.54
4323.59,4484.10,4201.03,4647.18,4337.44,4044.62,4356.41,4220.00,4877.95,4257.44,4445.64,4700.51,4367.69,4561.54
4330.77,4485.13,4197.95,4653.33,4344.62,4048.21,4364.62,4217.44,4880.00,4243.59,4446.67,4707.18,4374.36,4565.13
4345.64,4496.92,4209.23,4656.92,4366.15,4056.41,4367.69,4226.15,4891.28,4277.95,4465.13,4723.08,4396.92,4590.77
4345.13,4506.15,4218.97,4656.41,4366.67,4065.13,4376.41,4236.41,4897.95,4308.72,4475.38,4734.36,4410.77,4603.59
4343.59,4504.10,4215.38,4661.03,4360.51,4066.15,4382.56,4227.18,4890.26,4301.54,4474.36,4733.85,4409.74,4601.54
4353.85,4504.62,4218.97,4669.23,4365.13,4061.54,4377.95,4211.28,4881.03,4285.64,4482.56,4737.44,4413.85,4610.26
4359.49,4511.79,4233.33,4674.87,4356.41,4053.33,4372.82,4201.03,4877.95,4280.51,4494.87,4751.28,4426.15,4622.05
4360.00,4510.77,4237.95,4676.41,4348.21,4050.26,4368.72,4187.69,4867.18,4281.03,4494.87,4755.90,4427.18,4620.51
4365.13,4507.18,4236.41,4672.82,4356.92,4051.28,4355.38,4168.72,4848.21,4284.62,4491.79,4751.28,4418.46,4615.90
4364.10,4508.72,4236.92,4668.72,4361.54,4046.15,4338.97,4154.87,4840.51,4285.64,4487.69,4753.85,4415.38,4616.92
4357.44,4504.62,4232.31,4665.13,4355.90,4034.87,4336.41,4152.82,4840.51,4269.74,4483.08,4756.92,4413.85,4616.41
4355.38,4501.54,4228.21,4663.59,4351.28,4033.85,4346.67,4160.51,4837.95,4252.31,4483.59,4749.23,4408.21,4608.72
4357.44,4505.13,4231.28,4669.23,4345.13,4042.05,4361.03,4179.49,4846.67,4264.10,4484.62,4749.23,4410.77,4603.08
4351.79,4500.51,4226.67,4671.28,4338.97,4045.64,4367.18,4199.49,4862.56,4285.13,4476.92,4752.31,4411.79,4602.56
4341.54,4488.72,4214.36,4661.03,4340.00,4046.15,4363.59,4203.08,4868.72,4285.13,4473.33,4740.00,4406.67,4600.00
4342.56,4491.28,4211.28,4657.44,4351.79,4050.26,4363.59,4201.54,4873.85,4281.54,4483.08,4732.82,4414.36,4600.00
4353.33,4506.67,4216.41,4664.62,4364.10,4055.90,4366.67,4208.72,4880.51,4285.64,4491.79,4745.13,4428.72,4610.26
4357.95,4511.28,4218.46,4665.13,4363.59,4059.49,4366.67,4212.31,4879.49,4283.59,4493.33,4753.85,4432.82,4615.38
4354.36,4505.13,4217.44,4665.13,4355.38,4061.03,4368.72,4198.97,4876.92,4276.41,4489.74,4749.23,4427.18,4607.18
4352.82,4506.67,4217.95,4671.28,4356.41,4061.54,4374.87,4185.64,4873.33,4270.26,4481.03,4741.54,4420.51,4601.03
4350.77,4506.67,4216.92,4667.18,4361.03,4061.54,4372.31,4189.23,4861.54,4261.54,4474.87,4736.92,4412.82,4596.92
4350.26,4495.38,4217.95,4659.49,4352.82,4056.92,4367.18,4203.08,4864.10,4268.21,4475.90,4742.56,4409.23,4593.85
4353.33,4489.74,4221.03,4661.54,4346.15,4050.26,4370.77,4218.97,4884.10,4294.36,4480.51,4752.82,4416.92,4597.95
4353.33,4494.87,4218.97,4660.51,4358.97,4051.79,4377.44,4229.74,4894.36,4305.64,4485.64,4750.77,4426.15,4602.05
4349.74,4493.33,4215.90,4657.95,4370.26,4062.05,4384.10,4235.90,4891.28,4295.90,4489.74,4746.15,4429.23,4601.03
4348.21,4493.33,4217.95,4666.67,4358.97,4066.15,4388.21,4234.87,4891.28,4288.72,4489.74,4743.59,4425.64,4600.51
4351.79,4503.08,4218.97,4670.77,4352.82,4062.05,4382.56,4226.67,4892.31,4292.31,4487.18,4738.97,4424.62,4600.51
4351.79,4506.67,4214.87,4664.62,4366.15,4062.05,4372.31,4215.90,4893.85,4296.41,4484.10,4735.38,4428.72,4599.49
4346.15,4504.10,4210.77,4663.08,4366.67,4067.69,4371.28,4205.64,4889.23,4290.77,4476.41,4734.87,4424.62,4598.46
4346.15,4507.69,4212.31,4669.23,4354.36,4068.72,4372.82,4196.41,4877.44,4287.69,4474.36,4733.33,4416.92,4597.95
4347.69,4510.26,4216.41,4673.33,4357.44,4062.05,4366.67,4195.90,4882.05,4281.54,4477.44,4733.33,4417.95,4597.44
4342.56,4508.21,4212.82,4669.74,4365.64,4059.49,4365.13,4205.64,4892.82,4269.23,4476.92,4732.82,4420.00,4592.31
4338.97,4509.74,4207.18,4664.62,4360.00,4063.59,4375.38,4221.54,4893.85,4284.62,4475.38,4731.28,4414.36,4586.67
4341.54,4506.67,4212.31,4663.59,4360.00,4066.67,4387.18,4238.97,4899.49,4313.33,4475.90,4732.82,4411.28,4588.21
4334.87,4493.33,4214.36,4660.51,4368.21,4066.67,4394.87,4251.28,4907.69,4305.13,4474.87,4731.28,4413.33,4588.21
4327.69,4488.21,4205.13,4655.38,4356.41,4065.64,4399.49,4252.82,4905.64,4285.13,4472.82,4724.62,4410.26,4583.59
4332.31,4492.31,4205.64,4659.49,4340.51,4065.13,4395.90,4252.31,4903.08,4291.79,4471.79,4726.67,4409.74,4586.15
4337.44,4491.79,4216.92,4661.54,4353.33,4065.64,4392.31,4252.82,4904.62,4298.46,4473.85,4733.85,4414.36,4594.36
4336.41,4493.33,4216.41,4656.41,4370.26,4067.69,4390.26,4243.59,4907.69,4301.03,4476.41,4734.87,4417.44,4600.00
4337.95,4504.10,4214.87,4658.97,4367.18,4066.15,4378.97,4224.10,4906.15,4298.46,4475.38,4734.87,4413.85,4598.97
4341.54,4507.69,4218.97,4665.13,4364.62,4060.51,4364.10,4207.69,4890.26,4264.62,4474.36,4737.44,4406.67,4591.79
4338.46,4504.10,4210.77,4664.10,4367.18,4057.95,4363.08,4204.62,4883.08,4257.44,4473.33,4733.85,4404.10,4586.67
4332.82,4507.18,4200.00,4664.10,4364.10,4065.64,4378.97,4215.38,4900.00,4302.56,4473.85,4728.72,4404.10,4586.67
4328.72,4505.13,4202.05,4663.59,4366.67,4075.38,4395.90,4229.23,4912.82,4328.21,4472.82,4723.08,4400.51,4587.18
4325.13,4493.33,4197.44,4653.85,4374.87,4074.87,4401.03,4240.00,4907.69,4315.90,4467.69,4714.36,4396.41,4579.49
4321.54,4489.23,4183.08,4646.67,4371.28,4070.26,4398.46,4247.69,4903.08,4293.33,4467.69,4710.77,4393.33,4570.77
4322.56,4493.33,4185.64,4650.26,4365.13,4070.26,4399.49,4250.77,4907.18,4282.56,4474.87,4714.36,4389.23,4574.87
4325.13,4491.79,4197.44,4654.87,4370.77,4072.82,4402.05,4251.28,4909.23,4298.46,4475.90,4716.92,4389.23,4583.08
4325.13,4489.23,4197.95,4654.36,4369.74,4068.72,4400.00,4250.26,4904.10,4313.33,4471.79,4716.92,4390.26,4585.13
4324.62,4490.77,4195.38,4655.38,4360.00,4060.51,4392.82,4239.49,4895.90,4300.00,4470.26,4716.41,4384.10,4582.05
4327.18,4489.23,4197.44,4657.95,4361.03,4057.95,4381.03,4222.05,4885.64,4292.31,4468.72,4716.92,4380.00,4582.05
4333.85,4496.41,4208.21,4663.59,4370.26,4058.97,4370.26,4209.23,4878.46,4296.92,4471.28,4721.54,4383.08,4586.15
4339.49,4505.64,4215.90,4667.18,4366.67,4057.95,4367.18,4198.46,4873.33,4283.08,4474.36,4726.67,4383.59,4588.72
4337.44,4499.49,4209.74,4666.15,4354.87,4056.92,4370.26,4196.41,4872.82,4272.82,4472.31,4728.21,4382.56,4587.69
4333.33,4489.74,4203.08,4664.10,4358.97,4059.49,4376.92,4209.23,4883.08,4283.59,4475.90,4728.72,4384.62,4588.21
4328.21,4491.28,4201.54,4657.44,4365.64,4061.54,4385.13,4225.64,4892.82,4291.28,4473.85,4721.54,4382.56,4585.13
4315.90,4490.77,4191.28,4647.18,4361.03,4061.54,4389.23,4232.82,4893.85,4295.38,4460.51,4707.18,4374.87,4571.79
4310.26,4486.15,4182.05,4645.64,4360.00,4060.51,4387.69,4237.44,4897.44,4296.92,4456.41,4701.54,4371.28,4563.59
4317.44,4488.72,4188.72,4652.82,4368.21,4060.00,4387.18,4244.62,4900.00,4278.97,4462.56,4703.08,4372.31,4565.13
4325.13,4491.28,4196.92,4658.46,4368.72,4061.54,4385.64,4245.13,4893.85,4274.36,4458.97,4705.64,4371.79,4566.67
4328.72,4496.41,4204.62,4662.56,4356.92,4058.46,4379.49,4238.97,4895.90,4297.44,4456.41,4714.36,4377.44,4574.36
4338.46,4504.10,4213.33,4665.64,4355.38,4053.33,4369.23,4232.31,4894.36,4297.44,4465.13,4726.15,4388.21,4585.64
4349.23,4511.28,4217.44,4668.72,4363.59,4048.72,4351.28,4220.51,4879.49,4282.56,4475.38,4732.31,4394.87,4594.36
4356.92,4520.00,4226.67,4676.92,4363.08,4043.59,4337.95,4202.56,4867.69,4287.18,4484.62,4740.00,4404.10,4604.10
4361.54,4522.05,4235.90,4681.54,4358.97,4041.03,4341.03,4192.82,4863.59,4285.13,4493.33,4749.23,4414.36,4612.31
4357.44,4514.36,4232.31,4674.87,4361.54,4044.10,4353.85,4193.33,4865.64,4282.56,4497.95,4749.74,4414.36,4608.72
4343.08,4503.08,4221.03,4665.13,4358.97,4048.72,4369.74,4198.97,4873.33,4296.92,4488.21,4739.49,4402.56,4595.38
4331.79,4493.85,4213.33,4658.97,4354.87,4053.33,4381.54,4207.69,4873.33,4288.21,4474.36,4725.64,4390.26,4582.05
4330.77,4489.23,4203.59,4653.85,4363.08,4058.97,4386.67,4218.97,4872.82,4277.44,4471.79,4720.51,4389.23,4580.00
4331.79,4489.74,4197.95,4652.31,4364.10,4062.05,4390.26,4237.95,4890.77,4300.00,4475.38,4726.67,4392.31,4583.08
4333.85,4495.90,4206.67,4659.49,4353.33,4062.05,4394.87,4256.41,4907.69,4309.74,4481.03,4734.36,4397.95,4583.08
4341.03,4503.59,4214.36,4664.10,4357.95,4063.59,4389.74,4258.97,4910.26,4302.56,4487.69,4735.90,4406.67,4589.74
4347.18,4508.21,4214.87,4661.54,4369.23,4062.05,4373.85,4253.85,4915.90,4308.72,4496.41,4738.46,4413.85,4600.51
4354.87,4514.36,4224.10,4672.82,4369.74,4055.38,4360.00,4254.36,4921.54,4317.95,4505.13,4751.28,4420.51,4611.28
4367.18,4530.26,4237.44,4689.23,4368.72,4051.79,4352.31,4252.31,4918.46,4313.85,4511.28,4763.08,4430.77,4623.08
4371.28,4537.95,4236.41,4685.13,4373.33,4049.74,4340.00,4232.82,4906.67,4298.46,4512.82,4759.49,4436.41,4627.18
4366.15,4530.26,4230.26,4674.87,4374.36,4044.62,4331.28,4208.72,4890.77,4292.82,4506.15,4751.28,4431.28,4619.49
4363.08,4525.64,4231.28,4680.00,4367.18,4043.08,4340.00,4196.92,4872.31,4305.13,4494.87,4746.67,4423.59,4611.79
4356.92,4520.51,4228.21,4683.59,4356.41,4043.59,4350.26,4191.28,4858.97,4292.82,4482.56,4741.03,4411.28,4603.08
4344.10,4509.23,4219.49,4673.85,4350.26,4043.59,4356.41,4185.64,4854.87,4256.41,4474.36,4731.79,4395.38,4589.74
4336.92,4498.97,4211.79,4663.08,4358.46,4051.28,4369.23,4193.85,4853.85,4260.00,4469.23,4722.56,4386.15,4581.54
4337.95,4495.38,4203.59,4655.38,4373.33,4062.56,4375.90,4211.79,4863.08,4282.05,4469.74,4715.90,4387.18,4582.56
4338.97,4500.51,4197.44,4653.85,4372.82,4062.56,4375.38,4218.97,4881.54,4278.46,4472.82,4714.36,4392.82,4583.59
4342.05,4504.62,4202.05,4658.97,4365.64,4061.54,4377.95,4224.62,4890.77,4284.62,4470.77,4721.54,4395.38,4585.64
4350.77,4506.15,4214.36,4667.18,4368.72,4068.72,4377.95,4230.26,4894.87,4312.82,4480.51,4733.85,4403.08,4597.44
4357.95,4513.85,4223.08,4674.36,4369.23,4068.21,4368.72,4222.56,4902.05,4322.05,4502.56,4745.13,4420.51,4612.82
4361.54,4525.13,4229.74,4675.38,4369.74,4062.05,4356.92,4214.87,4907.69,4304.62,4508.72,4751.28,4430.26,4617.44
4367.18,4527.18,4230.26,4672.82,4380.00,4060.51,4349.23,4213.85,4906.67,4307.18,4497.95,4750.77,4428.21,4617.44
4368.21,4525.13,4224.10,4673.85,4384.10,4056.41,4345.13,4213.33,4898.46,4323.59,4494.36,4741.54,4425.64,4617.95
4360.00,4527.18,4221.54,4677.44,4377.44,4050.26,4345.13,4210.77,4889.23,4314.36,4494.87,4734.87,4421.54,4615.90
4357.95,4523.59,4222.05,4677.95,4367.69,4053.85,4357.44,4216.92,4888.72,4294.36,4490.26,4741.03,4415.90,4607.69
4357.95,4511.28,4219.49,4671.79,4358.46,4060.51,4380.00,4228.21,4888.72,4290.77,4491.28,4742.56,4412.31,4603.08
4347.18,4503.08,4213.85,4658.97,4359.49,4058.97,4389.23,4233.33,4883.59,4295.38,4490.26,4734.36,4406.67,4598.97
4338.97,4500.00,4205.13,4646.15,4367.69,4061.03,4382.56,4230.77,4884.10,4302.56,4478.46,4731.28,4396.92,4589.23
4341.54,4496.41,4199.49,4646.67,4368.21,4067.18,4385.64,4232.31,4890.77,4311.28,4472.82,4734.36,4394.87,4584.10
4344.62,4500.51,4203.59,4653.85,4371.28,4068.21,4389.74,4234.87,4893.85,4310.26,4481.54,4735.90,4402.05,4591.79
4347.69,4515.90,4210.26,4657.44,4376.41,4066.67,4377.44,4229.23,4896.41,4299.49,4485.64,4732.31,4408.72,4597.95
4358.97,4524.62,4214.87,4669.74,4366.67,4067.69,4365.13,4225.13,4905.64,4302.56,4494.87,4733.33,4417.95,4601.54
4370.77,4525.13,4220.00,4687.18,4364.62,4068.21,4362.05,4224.62,4914.87,4321.54,4506.67,4744.62,4429.23,4614.36
4368.72,4527.18,4221.03,4682.05,4381.03,4068.21,4357.95,4218.97,4912.82,4329.74,4500.51,4745.64,4429.74,4615.90
4360.00,4525.64,4215.38,4665.64,4387.18,4070.26,4357.95,4211.79,4902.05,4317.44,4490.77,4729.74,4421.54,4604.10
4354.87,4521.03,4206.67,4661.54,4374.87,4067.18,4364.10,4215.38,4894.36,4301.03,4488.72,4718.46,4413.33,4598.46
4352.31,4518.97,4202.05,4665.13,4366.15,4061.03,4367.69,4227.18,4890.26,4289.23,4481.54,4718.97,4407.18,4592.82
4349.23,4519.49,4204.62,4666.15,4367.69,4063.08,4373.85,4234.36,4891.28,4288.21,4472.31,4721.54,4405.13,4586.15
4347.69,4512.31,4204.10,4665.13,4369.23,4068.21,4381.03,4237.95,4893.85,4303.59,4473.33,4718.97,4403.08,4585.64
4347.69,4505.13,4206.15,4662.56,4366.15,4067.18,4385.13,4243.59,4893.85,4305.64,4481.03,4720.51,4401.03,4587.69
4348.72,4507.18,4213.33,4661.03,4361.54,4064.62,4391.79,4249.23,4898.46,4293.33,4489.23,4727.18,4408.21,4592.82
4350.77,4514.87,4216.92,4662.05,4365.64,4069.23,4393.85,4247.18,4907.69,4301.03,4493.85,4734.87,4415.38,4599.49
4355.38,4520.00,4216.92,4665.64,4376.41,4071.79,4380.51,4240.51,4911.28,4311.28,4491.28,4743.59,4413.33,4603.08
4360.00,4524.62,4221.03,4672.82,4372.82,4068.72,4365.64,4229.74,4910.26,4309.23,4494.36,4747.69,4413.85,4606.67
4359.49,4525.64,4220.51,4675.90,4360.51,4068.21,4362.05,4217.95,4903.08,4310.77,4490.77,4740.51,4415.38,4606.67
4356.41,4523.59,4215.90,4671.28,4369.23,4073.33,4363.08,4210.26,4893.85,4308.21,4476.92,4728.72,4406.67,4599.49
4357.95,4523.59,4214.36,4670.26,4383.59,4077.44,4368.72,4210.77,4895.90,4297.95,4472.31,4723.08,4400.00,4598.97
4358.97,4523.59,4209.23,4672.82,4376.92,4078.46,4376.41,4222.05,4905.64,4300.00,4472.82,4720.00,4402.05,4598.46
4356.92,4524.10,4201.03,4669.23,4368.72,4080.51,4386.67,4239.49,4908.72,4305.13,4473.33,4721.03,4404.10,4590.26
4351.28,4517.44,4196.92,4657.95,4372.31,4083.59,4397.44,4255.38,4909.23,4302.05,4475.90,4720.00,4403.59,4584.62
4343.08,4505.13,4195.90,4651.28,4371.28,4084.62,4404.62,4263.59,4910.26,4305.13,4475.38,4710.77,4399.49,4584.10
4342.56,4506.15,4195.90,4653.33,4363.59,4083.08,4408.21,4268.21,4911.28,4306.15,4470.77,4707.69,4393.85,4582.56
4349.74,4517.44,4195.90,4657.95,4363.08,4081.03,4406.15,4267.18,4911.79,4299.49,4471.28,4711.28,4397.95,4584.62
4357.95,4521.54,4202.05,4662.05,4369.74,4077.44,4395.90,4256.41,4908.21,4296.92,4474.87,4718.46,4409.74,4594.36
4366.15,4527.18,4213.33,4669.23,4372.82,4071.28,4383.59,4247.18,4906.15,4300.00,4476.92,4728.72,4412.31,4602.56
4372.82,4537.95,4220.51,4681.54,4372.31,4066.15,4371.28,4235.90,4899.49,4295.38,4475.38,4734.36,4408.21,4605.64
4375.38,4540.51,4220.51,4686.67,4371.28,4059.49,4353.85,4215.38,4882.56,4289.23,4472.82,4735.38,4410.77,4610.26
4375.38,4540.00,4220.51,4683.59,4372.31,4055.90,4345.13,4196.92,4871.79,4288.72,4482.05,4737.95,4415.90,4613.33
4372.82,4537.44,4221.03,4680.51,4373.33,4065.13,4357.44,4193.85,4874.87,4288.21,4492.31,4741.03,4414.36,4608.72
4365.13,4525.64,4214.36,4673.85,4372.31,4075.38,4371.79,4202.05,4876.92,4293.85,4482.56,4733.85,4410.77,4600.00
4357.95,4520.00,4203.08,4663.59,4374.36,4073.85,4379.49,4210.77,4876.92,4301.54,4472.31,4726.15,4410.77,4597.44
4355.90,4523.59,4198.46,4662.05,4374.36,4078.46,4389.23,4221.54,4890.26,4301.54,4482.05,4731.28,4410.77,4599.49
4357.44,4523.59,4203.08,4669.23,4367.18,4090.26,4400.51,4237.95,4906.15,4293.85,4488.72,4733.85,4411.28,4596.41
4358.46,4523.59,4203.59,4671.28,4367.18,4090.26,4403.59,4251.79,4910.77,4287.18,4482.56,4726.15,4411.79,4593.33
4356.41,4522.56,4197.95,4664.10,4380.51,4083.59,4399.49,4252.82,4909.23,4297.44,4474.87,4722.56,4411.28,4595.90
4357.95,4524.10,4200.51,4660.51,4386.15,4078.97,4393.33,4249.74,4908.21,4311.28,4471.79,4729.23,4410.77,4598.46
4369.23,4536.41,4213.33,4672.82,4382.05,4075.38,4385.64,4249.74,4908.72,4317.95,4480.51,4732.82,4415.90,4604.10
4382.05,4546.15,4226.67,4689.23,4377.44,4066.67,4371.79,4243.08,4910.26,4312.31,4493.33,4740.00,4427.18,4615.38
4384.10,4542.56,4234.36,4692.31,4368.21,4055.38,4356.41,4229.23,4901.54,4295.38,4495.90,4751.28,4432.82,4621.03
4379.49,4537.95,4233.85,4687.69,4365.13,4047.69,4343.08,4213.85,4880.00,4286.15,4492.31,4752.31,4423.59,4615.38
4376.92,4539.49,4231.79,4686.67,4367.18,4050.26,4336.92,4204.10,4874.36,4297.44,4488.72,4746.15,4413.33,4609.74
4375.38,4537.95,4233.33,4689.23,4360.00,4061.03,4349.23,4210.77,4887.18,4300.51,4491.28,4748.72,4417.95,4611.79
4369.23,4525.13,4224.62,4678.97,4365.13,4070.77,4373.85,4228.21,4892.31,4287.69,4495.90,4753.33,4424.10,4610.77
4355.90,4507.69,4203.59,4657.44,4381.03,4078.97,4389.23,4232.82,4887.18,4288.72,4480.00,4738.97,4405.13,4590.77
4345.64,4502.05,4192.82,4647.69,4376.92,4088.21,4393.33,4233.33,4888.21,4298.97,4458.46,4717.44,4380.51,4573.85
4345.64,4506.15,4196.92,4654.36,4368.72,4095.38,4404.10,4252.82,4903.59,4297.95,4464.62,4718.97,4387.18,4578.97
4348.21,4505.13,4198.46,4655.90,4381.54,4095.38,4410.26,4270.77,4921.54,4304.10,4483.59,4733.33,4409.23,4587.69
4353.85,4507.69,4198.97,4654.87,4387.18,4092.31,4405.13,4271.79,4931.79,4327.18,4489.23,4735.38,4417.95,4590.77
4363.59,4520.51,4208.21,4665.64,4370.77,4087.18,4398.46,4264.62,4926.67,4328.72,4487.69,4731.28,4416.92,4597.95
4370.26,4533.33,4216.92,4677.95,4364.62,4076.92,4390.77,4248.72,4908.72,4297.44,4488.21,4734.36,4417.44,4603.08
4375.90,4536.92,4220.51,4682.56,4371.28,4068.72,4384.62,4229.23,4895.38,4286.67,4489.23,4736.41,4423.08,4602.56
4380.00,4530.77,4221.54,4681.03,4376.41,4065.13,4377.95,4216.92,4886.67,4305.13,4484.62,4734.36,4427.18,4610.77
4376.92,4526.15,4222.05,4676.41,4377.44,4063.08,4368.72,4205.13,4875.38,4307.69,4477.44,4739.49,4428.21,4619.49
4372.31,4525.64,4220.00,4672.31,4376.92,4064.10,4367.18,4194.87,4868.72,4291.79,4480.00,4745.13,4426.67,4613.33
4371.28,4524.10,4217.44,4674.87,4375.38,4069.74,4380.51,4201.03,4872.31,4281.54,4489.74,4740.51,4421.03,4602.56
4369.74,4523.59,4217.95,4678.97,4366.15,4074.87,4395.90,4214.36,4875.90,4284.62,4489.23,4735.90,4416.92,4600.00
4362.56,4520.51,4217.44,4672.82,4356.92,4076.41,4401.03,4224.62,4885.13,4298.46,4481.03,4737.95,4415.38,4596.92
4355.90,4509.23,4215.38,4663.08,4364.62,4080.00,4404.10,4239.49,4904.10,4309.74,4480.00,4736.92,4411.28,4590.77
4357.95,4509.23,4212.31,4664.10,4383.08,4086.15,4406.15,4258.46,4917.95,4313.85,4488.72,4732.82,4413.33,4592.31
4364.62,4521.03,4212.31,4670.77,4383.08,4086.15,4407.69,4270.77,4924.62,4318.46,4492.31,4734.36,4422.56,4600.00
4365.13,4524.10,4212.82,4671.28,4375.90,4078.97,4401.03,4268.21,4925.13,4320.00,4488.21,4732.82,4421.54,4599.49
4367.18,4527.18,4215.90,4675.38,4380.51,4074.36,4382.56,4258.97,4927.18,4325.13,4488.72,4731.28,4421.54,4596.41
4377.44,4537.44,4225.13,4687.18,4377.95,4071.28,4370.26,4250.77,4923.59,4322.56,4488.21,4736.41,4426.67,4600.00
4381.03,4541.03,4226.67,4688.72,4372.31,4064.62,4365.13,4231.79,4897.44,4297.44,4478.97,4735.38,4420.00,4604.62
4376.92,4535.90,4219.49,4683.08,4374.87,4058.97,4362.05,4205.13,4873.33,4290.26,4472.82,4727.18,4409.74,4599.49
4372.31,4530.77,4216.92,4684.10,4367.69,4057.95,4365.13,4191.79,4868.72,4301.03,4474.87,4723.08,4407.69,4588.72
4363.59,4524.10,4214.36,4676.92,4354.87,4060.51,4380.51,4192.82,4863.08,4274.87,4475.90,4725.64,4400.51,4584.10
4353.85,4513.33,4210.26,4663.08,4363.59,4064.62,4394.87,4201.03,4857.44,4255.38,4472.31,4726.67,4387.69,4583.59
4354.36,4506.67,4209.23,4662.05,4373.85,4070.26,4396.92,4214.36,4870.77,4292.82,4472.31,4724.62,4384.62,4582.56
4357.95,4511.79,4205.64,4665.64,4372.31,4075.38,4398.97,4229.23,4887.69,4321.54,4473.33,4728.72,4389.74,4583.59
4356.92,4519.49,4200.00,4660.51,4381.54,4076.92,4403.08,4239.49,4897.95,4309.23,4478.46,4732.31,4395.38,4591.28
4359.49,4521.03,4203.08,4662.56,4391.79,4077.44,4398.97,4250.77,4919.49,4320.00,4489.23,4728.21,4399.49,4599.49
4365.64,4522.56,4204.62,4674.36,4384.62,4078.46,4386.67,4263.08,4940.51,4353.33,4493.33,4725.13,4401.54,4598.97
4366.67,4529.74,4206.15,4678.46,4382.05,4075.38,4373.85,4264.62,4940.00,4348.21,4489.74,4730.77,4400.51,4598.46
4365.13,4535.90,4214.87,4680.00,4390.26,4069.23,4366.15,4255.90,4930.77,4321.54,4492.82,4735.90,4399.49,4600.00
4369.23,4538.46,4220.00,4686.15,4391.28,4066.67,4361.03,4239.49,4919.49,4326.15,4493.33,4732.31,4398.97,4601.03
4376.41,4541.03,4218.46,4685.13,4388.21,4063.08,4350.26,4211.79,4894.36,4330.77,4481.54,4727.69,4394.36,4600.51
4372.82,4537.44,4214.87,4675.38,4385.13,4057.44,4347.69,4184.10,4863.08,4292.82,4471.28,4724.10,4385.64,4593.85
4363.08,4527.69,4214.36,4672.31,4375.90,4058.97,4367.69,4174.36,4851.28,4269.74,4469.74,4722.56,4378.46,4586.67
4357.95,4518.97,4213.85,4676.41,4368.72,4065.64,4384.10,4182.56,4856.41,4287.69,4473.85,4725.13,4378.97,4587.69
4355.38,4512.82,4206.15,4669.74,4371.79,4070.26,4391.28,4202.05,4865.64,4297.95,4478.97,4727.18,4382.56,4587.69
4349.74,4505.13,4197.95,4656.41,4378.46,4074.87,4406.15,4227.18,4877.95,4296.41,4475.38,4722.56,4380.51,4582.56
4346.67,4503.08,4197.44,4656.41,4381.54,4080.51,4414.36,4248.72,4895.90,4303.08,4475.38,4722.05,4381.54,4582.05
4351.79,4511.79,4198.97,4664.10,4382.56,4084.62,4405.13,4262.05,4911.79,4318.46,4486.15,4730.77,4391.28,4585.13
4362.05,4521.03,4203.08,4666.67,4385.13,4084.10,4392.31,4268.72,4923.59,4340.00,4497.95,4734.87,4402.56,4594.87
4367.69,4528.21,4214.87,4670.26,4383.59,4078.97,4380.51,4269.74,4932.31,4344.62,4500.51,4737.44,4409.74,4607.18
4370.77,4533.85,4220.51,4677.44,4381.54,4073.33,4365.64,4261.54,4928.21,4329.23,4496.41,4745.13,4408.72,4606.15
4373.85,4535.38,4218.97,4679.49,4384.10,4069.23,4356.41,4246.67,4913.85,4326.67,4491.79,4746.67,4404.62,4604.10
4373.33,4536.41,4222.05,4680.00,4381.03,4066.67,4354.36,4233.85,4905.13,4326.67,4492.31,4743.08,4408.21,4610.77
4373.33,4535.38,4223.59,4678.97,4380.00,4065.13,4353.33,4218.97,4895.90,4309.74,4495.38,4742.05,4412.82,4608.21
4372.82,4529.74,4218.97,4674.87,4381.54,4062.05,4355.38,4196.92,4875.38,4299.49,4488.72,4738.97,4404.62,4600.51
4366.67,4522.05,4214.36,4670.77,4375.38,4059.49,4364.62,4173.85,4855.90,4298.46,4475.90,4731.79,4393.33,4600.00
4359.49,4521.03,4212.82,4666.15,4373.85,4062.56,4372.82,4160.51,4843.59,4289.23,4476.92,4725.64,4393.33,4594.36
4357.44,4521.54,4212.31,4663.08,4375.38,4066.67,4378.46,4171.28,4838.97,4279.49,4487.69,4726.67,4394.36,4586.67
4357.95,4515.90,4211.28,4666.67,4369.74,4067.18,4390.26,4199.49,4849.23,4291.79,4490.26,4731.79,4393.85,4591.79
4360.51,4516.92,4211.28,4670.77,4369.74,4069.23,4395.90,4221.54,4868.21,4316.41,4487.69,4733.33,4402.56,4601.03
4370.26,4531.79,4215.90,4673.85,4378.46,4075.38,4387.18,4237.44,4886.67,4324.10,4500.51,4740.51,4416.41,4608.21
4375.38,4541.54,4220.00,4674.36,4378.97,4076.41,4374.87,4252.31,4906.67,4317.95,4509.23,4751.79,4417.95,4608.21
4370.26,4535.38,4216.41,4671.28,4383.59,4070.26,4366.15,4255.38,4917.95,4324.10,4500.00,4746.67,4407.69,4601.03
4368.72,4532.82,4216.41,4673.33,4386.67,4066.15,4357.95,4245.13,4914.36,4334.36,4486.67,4734.36,4401.03,4600.00
4372.82,4536.41,4220.51,4676.41,4374.87,4068.72,4350.77,4230.26,4908.72,4316.92,4478.97,4733.33,4397.95,4600.51
4368.72,4530.26,4215.38,4670.26,4379.49,4073.33,4357.95,4219.49,4901.54,4296.41,4475.38,4728.72,4392.82,4589.23
4363.08,4522.05,4207.69,4661.03,4392.31,4074.36,4373.85,4213.33,4895.38,4313.33,4473.85,4718.97,4387.69,4582.05
4365.13,4522.56,4212.82,4660.51,4381.54,4074.36,4383.08,4204.62,4888.21,4330.26,4474.36,4722.05,4388.72,4586.67
4366.67,4521.03,4220.51,4665.64,4365.64,4073.85,4388.21,4195.90,4876.92,4309.74,4475.38,4730.77,4389.23,4588.72
4365.64,4518.46,4220.51,4671.28,4360.51,4070.77,4393.33,4196.41,4872.82,4294.87,4476.41,4733.33,4384.10,4586.67
4366.67,4520.51,4216.92,4671.28,4358.46,4065.64,4390.77,4196.41,4871.28,4289.74,4476.92,4733.85,4384.62,4587.69
4367.18,4522.05,4215.90,4661.54,4369.74,4063.08,4381.54,4196.92,4866.67,4284.10,4486.15,4732.82,4394.36,4594.36
4369.74,4528.21,4217.44,4660.51,4388.72,4069.74,4375.90,4215.38,4880.51,4316.92,4502.56,4738.97,4409.74,4608.72
4377.44,4540.51,4220.00,4675.38,4389.23,4074.36,4371.28,4240.00,4908.72,4357.95,4513.33,4756.92,4427.69,4620.51
4381.54,4543.59,4224.10,4684.10,4381.03,4071.79,4364.10,4241.03,4914.36,4350.77,4511.79,4762.56,4431.79,4621.03
4382.56,4539.49,4225.13,4681.03,4383.08,4070.77,4364.62,4234.36,4906.67,4326.67,4510.26,4754.36,4424.10,4618.46
4380.51,4538.46,4224.10,4680.51,4381.54,4074.87,4375.38,4233.85,4911.79,4323.08,4511.79,4752.31,4418.46,4616.41
4369.74,4528.21,4218.46,4673.85,4377.44,4076.92,4386.67,4225.13,4911.28,4328.72,4501.03,4744.62,4409.74,4605.13
4354.36,4509.23,4206.15,4653.33,4383.08,4075.90,4388.21,4214.36,4896.41,4327.18,4477.44,4723.59,4389.74,4586.15
4349.23,4503.08,4198.46,4643.59,4376.92,4075.38,4387.18,4210.26,4886.67,4310.26,4466.67,4716.92,4377.44,4579.49
4351.28,4506.15,4200.51,4651.28,4358.46,4074.36,4393.33,4205.13,4888.72,4296.92,4473.33,4725.13,4381.54,4583.08
4345.13,4504.62,4200.00,4647.18,4363.08,4076.92,4402.56,4201.03,4886.67,4296.92,4469.74,4721.54,4380.51,4575.38
4339.49,4501.03,4194.36,4639.49,4375.90,4077.44,4405.64,4199.49,4874.36,4287.69,4460.00,4715.90,4371.28,4564.62
4347.69,4502.56,4204.10,4647.18,4367.69,4069.23,4393.85,4201.54,4874.36,4288.21,4465.64,4730.77,4374.87,4574.36
4362.56,4510.77,4224.10,4660.51,4361.03,4060.00,4371.79,4215.90,4888.21,4317.95,4484.10,4754.36,4391.79,4594.87
4372.82,4522.56,4234.87,4671.28,4368.21,4056.92,4356.41,4232.82,4897.44,4341.54,4501.03,4766.67,4407.18,4609.23
4374.36,4527.69,4236.41,4675.90,4367.69,4059.49,4352.31,4237.44,4898.46,4329.74,4511.79,4770.26,4415.38,4616.41
4369.23,4523.59,4232.82,4669.23,4367.69,4059.49,4351.79,4233.33,4897.44,4309.74,4513.85,4767.18,4416.41,4612.82
4365.13,4520.00,4224.10,4662.56,4375.38,4061.03,4353.33,4221.54,4892.82,4313.33,4500.00,4752.31,4407.69,4604.10
4362.56,4521.03,4211.79,4663.08,4377.44,4071.28,4360.00,4210.77,4887.69,4321.03,4487.18,4732.82,4398.46,4593.33
4356.41,4521.03,4208.21,4662.56,4372.82,4076.92,4368.21,4211.79,4895.90,4318.97,4483.59,4725.13,4401.03,4584.62
4355.38,4522.56,4212.31,4666.67,4368.21,4074.36,4376.92,4220.51,4909.74,4323.08,4491.79,4728.72,4410.26,4588.72
4363.08,4525.13,4214.36,4668.72,4375.38,4078.46,4384.10,4226.67,4911.28,4327.18,4497.95,4731.79,4415.90,4598.97
4366.15,4526.67,4213.85,4665.64,4387.69,4083.08,4385.13,4222.56,4906.67,4323.59,4497.95,4736.41,4421.54,4603.08
4365.64,4526.67,4217.95,4670.26,4382.05,4078.46,4385.64,4215.38,4905.13,4326.67,4503.08,4747.18,4427.69,4607.18
4366.67,4525.13,4220.51,4672.31,4367.69,4075.90,4390.26,4215.90,4898.46,4324.62,4504.62,4753.33,4420.00,4607.18
4366.15,4522.56,4218.46,4664.62,4372.82,4073.85,4386.67,4216.92,4890.26,4312.31,4496.41,4751.28,4408.72,4600.51
4369.74,4524.62,4225.64,4666.67,4381.54,4067.69,4368.72,4218.97,4893.85,4315.38,4492.31,4753.33,4412.82,4603.08
4375.90,4525.64,4235.90,4677.95,4374.36,4066.15,4355.38,4228.72,4895.90,4319.49,4499.49,4756.92,4416.92,4609.23
4374.36,4527.18,4232.82,4677.95,4369.74,4065.64,4353.85,4231.79,4887.69,4309.23,4503.59,4753.33,4409.74,4606.67
4371.79,4534.36,4232.31,4680.00,4371.28,4066.15,4354.87,4228.21,4893.85,4315.90,4504.62,4758.97,4416.41,4609.23
4375.90,4541.03,4238.46,4686.67,4375.90,4071.28,4359.49,4233.33,4907.18,4330.77,4506.67,4766.67,4431.28,4618.46
4374.36,4537.44,4228.21,4676.41,4383.08,4075.38,4364.10,4235.38,4906.15,4330.77,4507.69,4756.41,4430.77,4617.44
4365.64,4532.82,4214.36,4663.59,4386.67,4075.90,4364.10,4230.26,4909.23,4333.33,4507.69,4745.64,4425.13,4606.15
4367.18,4534.36,4217.44,4671.28,4378.97,4078.97,4369.23,4230.77,4918.97,4334.36,4507.69,4749.74,4428.72,4606.67
4373.33,4540.00,4220.51,4683.08,4369.74,4079.49,4375.38,4232.82,4914.87,4326.15,4508.21,4748.72,4432.82,4615.38
4372.31,4537.95,4215.38,4674.87,4372.82,4075.90,4373.85,4231.28,4907.18,4322.56,4500.51,4740.51,4429.74,4610.26
4370.26,4527.69,4213.85,4664.10,4383.08,4074.36,4375.38,4229.23,4903.59,4313.85,4492.82,4739.49,4427.18,4602.56
4371.79,4527.69,4215.38,4666.67,4382.56,4073.33,4382.56,4223.08,4893.85,4293.85,4490.77,4740.51,4421.03,4602.05
4374.36,4537.95,4221.03,4678.97,4371.79,4069.74,4380.00,4217.95,4887.18,4297.95,4490.26,4742.56,4413.85,4601.54
4377.95,4540.51,4231.79,4689.23,4370.77,4065.64,4367.18,4216.92,4891.79,4323.59,4496.41,4751.28,4418.97,4603.59
4382.56,4538.46,4235.38,4689.23,4373.33,4058.97,4356.92,4218.97,4889.23,4326.15,4506.67,4761.03,4430.26,4613.33
4381.54,4539.49,4233.33,4687.18,4369.74,4054.36,4354.87,4213.33,4878.46,4310.26,4507.69,4761.03,4430.26,4618.46
4380.00,4537.95,4232.82,4684.10,4369.74,4056.92,4358.46,4204.10,4874.87,4307.69,4503.08,4752.82,4426.67,4615.90
4380.51,4533.85,4232.82,4675.38,4374.87,4060.00,4363.08,4207.18,4876.92,4308.72,4503.08,4749.74,4429.23,4614.87
4376.92,4532.31,4230.26,4671.28,4371.28,4061.54,4367.18,4215.38,4873.85,4294.36,4504.62,4750.77,4429.74,4614.87
4377.44,4534.87,4230.26,4684.10,4356.92,4065.13,4371.79,4218.46,4875.38,4287.69,4502.05,4751.79,4427.69,4615.90
4383.08,4538.97,4230.77,4691.28,4359.49,4068.72,4373.85,4218.46,4887.18,4302.05,4496.41,4751.79,4428.72,4617.44
4380.51,4536.41,4228.72,4680.51,4380.00,4072.82,4372.82,4219.49,4893.85,4318.46,4490.77,4749.74,4428.21,4616.92
4383.08,4537.44,4227.18,4675.90,4390.77,4078.46,4371.28,4222.56,4895.90,4323.59,4492.82,4748.72,4428.72,4617.44
4393.33,4546.15,4230.77,4684.62,4381.54,4077.95,4371.79,4228.72,4903.59,4317.44,4496.92,4754.36,4432.82,4618.46
4393.85,4549.23,4232.31,4691.79,4372.82,4078.97,4373.85,4230.77,4909.74,4317.95,4496.92,4756.92,4433.33,4618.97
4383.08,4540.00,4222.56,4688.72,4374.87,4084.62,4373.85,4221.03,4901.03,4315.90,4490.26,4744.10,4424.62,4612.82
4372.82,4527.69,4211.79,4673.85,4384.10,4086.15,4370.77,4209.74,4881.54,4290.26,4478.46,4728.21,4406.15,4592.82
4364.10,4519.49,4211.28,4658.97,4385.13,4083.59,4373.33,4205.64,4872.82,4279.49,4469.23,4724.62,4392.82,4580.51
4364.62,4517.95,4215.38,4662.05,4367.69,4080.51,4380.51,4212.82,4886.15,4306.15,4475.38,4731.79,4401.03,4590.26
4373.33,4521.03,4215.90,4672.82,4356.41,4075.90,4377.95,4219.49,4892.82,4311.79,4486.15,4741.03,4414.36,4601.54
4375.38,4523.08,4216.92,4671.79,4362.56,4071.79,4369.74,4215.90,4878.97,4289.74,4482.05,4743.59,4416.41,4601.03
4369.23,4520.00,4216.92,4666.67,4372.31,4071.28,4372.82,4217.44,4874.36,4292.31,4477.44,4740.00,4412.31,4598.97
4370.26,4518.97,4217.44,4672.31,4375.90,4078.46,4384.10,4233.33,4889.23,4308.72,4487.69,4742.05,4413.85,4599.49
4380.51,4530.26,4222.56,4681.54,4372.82,4085.64,4385.13,4250.26,4905.13,4313.85,4493.33,4749.23,4420.51,4603.08
4384.62,4537.95,4224.10,4680.51,4375.90,4083.59,4375.90,4249.23,4910.26,4316.92,4493.85,4753.85,4430.77,4606.15
4376.41,4527.18,4218.46,4672.31,4382.05,4081.54,4370.77,4236.41,4909.23,4326.15,4498.97,4751.28,4431.28,4604.10
4370.26,4520.00,4214.36,4670.26,4377.95,4087.69,4375.90,4231.28,4907.69,4323.59,4495.38,4743.59,4421.03,4598.97
4373.33,4527.69,4217.44,4673.85,4371.28,4091.79,4386.15,4232.82,4906.67,4310.77,4490.77,4744.10,4422.56,4602.05
4374.36,4527.69,4218.97,4672.82,4372.82,4090.77,4397.44,4234.87,4906.67,4312.82,4494.87,4749.23,4429.74,4605.13
4368.72,4518.97,4211.28,4666.15,4371.79,4090.77,4402.05,4235.90,4907.69,4326.15,4490.77,4739.49,4421.54,4593.85
4364.10,4518.97,4200.51,4661.54,4375.38,4091.28,4398.97,4233.85,4906.67,4326.67,4483.08,4727.18,4415.90,4584.62
4364.62,4523.08,4199.49,4667.69,4378.46,4091.28,4394.87,4233.33,4898.46,4304.10,4487.69,4732.31,4426.15,4594.87
4367.18,4523.59,4204.62,4675.38,4369.23,4089.23,4392.31,4230.26,4888.72,4284.62,4491.79,4738.97,4431.28,4605.64
4369.74,4522.05,4204.10,4668.21,4372.31,4087.69,4387.69,4220.51,4886.67,4295.38,4488.21,4735.38,4424.62,4601.54
4373.33,4522.56,4204.10,4661.03,4385.13,4088.72,4380.00,4222.05,4897.44,4327.18,4489.23,4735.38,4426.67,4600.00
4373.85,4525.13,4208.72,4667.69,4384.10,4089.23,4372.31,4234.87,4908.72,4338.97,4493.85,4741.54,4434.36,4605.64
4369.23,4526.15,4207.18,4673.85,4377.44,4089.74,4373.33,4236.41,4911.28,4327.69,4493.85,4743.08,4434.87,4605.64
4365.64,4525.64,4201.54,4669.74,4380.51,4092.82,4383.59,4233.33,4912.31,4325.13,4492.82,4738.46,4427.18,4602.56
4366.67,4524.62,4200.51,4669.23,4382.05,4096.41,4395.38,4232.82,4907.69,4311.79,4489.23,4733.85,4420.00,4597.44
4364.10,4523.59,4199.49,4672.31,4382.56,4094.87,4396.92,4225.13,4894.87,4288.21,4480.00,4723.59,4413.85,4588.21
4356.92,4523.08,4197.44,4669.74,4383.08,4091.28,4389.23,4217.95,4896.41,4300.00,4473.33,4713.85,4405.13,4581.54
4358.97,4522.05,4197.44,4667.69,4379.49,4092.31,4390.26,4218.46,4904.10,4323.59,4472.82,4722.56,4400.51,4586.15
4366.67,4521.54,4198.97,4670.77,4376.92,4093.85,4397.95,4216.92,4894.87,4315.90,4477.44,4734.87,4404.10,4595.90
4366.15,4522.56,4204.62,4673.33,4371.79,4091.28,4393.85,4214.36,4886.15,4306.15,4484.62,4733.33,4408.72,4600.00
4368.21,4523.59,4215.90,4672.31,4374.36,4087.69,4380.51,4214.87,4893.33,4312.82,4494.87,4739.49,4411.79,4603.59
4378.46,4522.56,4227.69,4673.85,4383.59,4087.69,4376.41,4214.87,4894.36,4312.31,4504.62,4759.49,4414.36,4612.31
4383.08,4524.62,4232.31,4680.51,4379.49,4089.74,4377.44,4213.33,4890.26,4316.41,4509.23,4771.79,4416.41,4621.03
4374.87,4526.67,4225.13,4676.92,4371.28,4089.23,4377.95,4219.49,4897.44,4328.72,4507.18,4768.21,4412.82,4616.41
4366.15,4517.44,4218.46,4666.15,4381.03,4092.82,4384.10,4235.90,4909.23,4328.21,4500.51,4760.51,4403.08,4605.64
4361.54,4507.69,4216.92,4662.56,4387.69,4101.54,4395.90,4250.26,4913.85,4316.92,4491.79,4753.33,4393.33,4595.38
4349.74,4500.00,4206.67,4658.46,4378.46,4103.08,4408.21,4250.26,4907.69,4298.46,4478.97,4738.97,4382.05,4577.95
4338.46,4493.33,4192.82,4649.23,4373.33,4098.46,4414.87,4247.69,4902.56,4283.59,4469.74,4721.03,4369.23,4562.56
4340.51,4496.41,4192.82,4650.77,4371.28,4100.51,4410.77,4252.82,4909.23,4300.51,4468.72,4717.44,4368.21,4562.56
4348.21,4503.08,4199.49,4659.49,4371.79,4102.56,4403.08,4251.28,4910.26,4329.23,4474.36,4727.18,4379.49,4572.82
4356.41,4508.21,4207.18,4662.56,4381.03,4096.41,4394.36,4235.90,4897.95,4323.08,4487.18,4738.97,4396.41,4588.72
4372.31,4523.08,4221.03,4668.21,4386.67,4090.26,4377.44,4221.03,4895.38,4309.74,4504.62,4754.36,4414.36,4608.72
4390.77,4541.03,4236.92,4683.59,4382.05,4083.59,4354.87,4210.26,4902.05,4328.21,4517.44,4771.79,4428.21,4624.10
4400.00,4547.18,4248.21,4696.92,4373.85,4073.85,4340.51,4203.59,4896.41,4334.87,4523.08,4782.56,4432.82,4632.82
4398.46,4545.13,4248.72,4693.85,4371.79,4069.74,4338.97,4207.69,4889.74,4304.62,4527.69,4785.64,4433.33,4635.38
4387.18,4532.31,4239.49,4681.03,4374.36,4073.85,4353.33,4222.56,4893.33,4298.97,4523.59,4777.95,4424.10,4624.62
4368.21,4511.79,4224.10,4665.64,4371.28,4078.46,4374.36,4234.87,4893.85,4314.87,4499.49,4758.46,4399.49,4599.49
4352.31,4501.54,4208.21,4652.31,4361.03,4080.00,4390.77,4235.90,4889.23,4303.59,4467.69,4734.87,4375.38,4573.33
4346.67,4502.56,4197.95,4649.74,4361.03,4084.62,4396.92,4232.82,4887.69,4288.21,4454.36,4716.41,4365.64,4562.05
4346.67,4504.62,4195.90,4652.31,4375.38,4092.31,4396.92,4233.85,4889.74,4283.08,4458.46,4709.74,4366.67,4562.05
4349.74,4508.21,4196.41,4655.38,4382.05,4097.44,4398.97,4232.82,4890.77,4276.92,4458.46,4709.74,4371.79,4561.03
4357.44,4517.95,4196.92,4663.08,4379.49,4096.41,4397.44,4224.10,4890.26,4286.67,4460.00,4715.38,4380.51,4567.69
4368.72,4529.74,4204.62,4670.26,4382.05,4091.28,4382.56,4213.85,4889.23,4304.62,4478.46,4728.72,4397.95,4587.69
4384.10,4543.08,4220.51,4677.44,4382.56,4085.13,4366.15,4205.64,4891.79,4304.10,4503.59,4745.13,4420.00,4609.74
4397.95,4556.92,4234.36,4693.33,4377.95,4080.00,4354.36,4198.46,4893.85,4300.00,4514.87,4758.46,4434.36,4627.18
4402.05,4560.51,4243.59,4700.00,4385.64,4075.38,4340.51,4200.00,4891.79,4305.13,4520.00,4769.23,4435.90,4636.41
4398.97,4552.31,4250.26,4689.74,4391.79,4067.18,4338.46,4208.72,4894.87,4321.54,4521.54,4776.92,4434.36,4636.41
4393.85,4546.15,4247.69,4684.62,4380.51,4065.64,4348.72,4218.46,4901.03,4340.00,4517.95,4776.92,4434.87,4631.79
4386.15,4538.46,4235.90,4685.13,4365.13,4070.26,4359.49,4227.69,4898.97,4325.64,4508.21,4765.64,4423.59,4621.54
4369.23,4519.49,4220.00,4671.28,4358.46,4074.87,4372.31,4225.64,4886.67,4289.23,4489.74,4744.10,4400.00,4597.44
4348.72,4502.56,4201.54,4648.21,4364.10,4081.54,4386.67,4207.69,4872.82,4269.23,4460.51,4716.41,4375.90,4568.72
4340.00,4501.03,4187.69,4641.03,4373.33,4088.72,4394.87,4200.00,4866.15,4264.10,4441.54,4700.51,4363.08,4561.03
4335.38,4506.15,4184.62,4646.15,4373.33,4091.28,4394.36,4202.05,4869.23,4264.62,4445.64,4697.44,4364.10,4566.15
4324.62,4508.72,4182.56,4644.10,4370.26,4089.23,4386.15,4190.26,4870.77,4266.67,4456.41,4698.97,4373.33,4566.67
