EEG.AF3,EEG.F7,EEG.F3,EEG.FC5,EEG.T7,EEG.P7,EEG.O1,EEG.O2,EEG.P8,EEG.T8,EEG.FC6,EEG.F4,EEG.F8,EEG.AF4
4339.487305,4453.846191,4202.05127,4642.563965,4348.717773,4047.692383,4374.871582,4225.641113,4861.538574,4371.282227,4494.358887,4782.05127,4372.820313,4574.871582
4345.128418,4463.589844,4204.102539,4647.179688,4351.282227,4052.820557,4374.871582,4223.077148,4862.05127,4386.153809,4509.743652,4783.589844,4377.436035,4586.153809
4343.077148,4461.538574,4200,4644.102539,4341.538574,4050.769287,4372.307617,4213.846191,4858.461426,4385.128418,4511.794922,4781.538574,4373.846191,4586.666504
4352.307617,4472.307617,4209.743652,4647.179688,4348.205078,4049.230713,4374.358887,4214.358887,4858.974121,4390.769043,4506.666504,4782.05127,4378.461426,4587.179688
4355.897461,4480,4217.436035,4652.307617,4357.94873,4047.179443,4369.230957,4218.461426,4853.333496,4386.666504,4508.205078,4780.512695,4374.358887,4586.666504
4342.563965,4466.666504,4207.692383,4645.641113,4347.179688,4040.512939,4358.461426,4214.358887,4846.153809,4374.358887,4506.666504,4778.974121,4360,4576.922852
4335.384766,4456.922852,4199.487305,4633.333496,4337.94873,4035.384521,4353.333496,4204.615234,4846.666504,4373.846191,4498.461426,4776.922852,4356.410156,4569.743652
4340,4461.025879,4201.538574,4625.128418,4344.102539,4038.974365,4358.461426,4205.128418,4845.641113,4374.358887,4483.589844,4771.794922,4355.384766,4570.256348
4335.384766,4460.512695,4201.538574,4620.512695,4343.589844,4043.589844,4367.692383,4215.384766,4849.230957,4368.205078,4474.358887,4764.102539,4345.641113,4562.563965
4328.205078,4457.436035,4195.897461,4621.538574,4335.897461,4046.153809,4372.820313,4222.05127,4860,4363.589844,4487.179688,4762.563965,4343.077148,4553.333496
4331.794922,4460.512695,4192.307617,4623.589844,4342.05127,4049.743652,4374.871582,4218.974121,4857.94873,4371.794922,4500,4768.205078,4351.794922,4556.410156
4331.282227,4455.384766,4186.666504,4612.820313,4350.769043,4048.205078,4373.846191,4205.641113,4841.538574,4377.436035,4485.641113,4763.077148,4354.871582,4557.94873
4320.512695,4441.538574,4181.025879,4596.922852,4349.743652,4044.615479,4372.820313,4203.077148,4840.512695,4359.487305,4466.153809,4748.717773,4348.205078,4551.282227
4318.974121,4439.487305,4182.563965,4601.538574,4350.256348,4048.205078,4378.461426,4224.102539,4855.384766,4341.025879,4471.794922,4750.769043,4353.333496,4549.230957
4321.538574,4445.641113,4186.153809,4610.256348,4355.897461,4053.846191,4386.666504,4230.256348,4861.025879,4350.256348,4489.230957,4763.589844,4381.538574,4552.307617
4313.846191,4448.717773,4184.102539,4602.563965,4359.487305,4050.769287,4382.05127,4217.94873,4858.974121,4355.384766,4502.05127,4764.102539,4405.128418,4554.358887
4309.743652,4453.333496,4184.615234,4598.974121,4367.692383,4052.307617,4371.794922,4217.94873,4860.512695,4338.461426,4501.538574,4760.512695,4407.692383,4555.384766
4319.487305,4460.512695,4196.922852,4612.307617,4380,4059.487061,4368.205078,4213.333496,4857.436035,4336.922852,4490.769043,4768.205078,4419.487305,4561.025879
4327.692383,4461.538574,4211.282227,4622.05127,4381.025879,4055.897461,4365.641113,4197.436035,4845.128418,4333.333496,4488.717773,4777.94873,4432.820313,4569.743652
4326.666504,4464.102539,4218.974121,4618.974121,4383.077148,4051.281982,4359.487305,4198.461426,4839.487305,4312.307617,4490.769043,4785.128418,4432.820313,4575.897461
4317.94873,4462.563965,4216.922852,4611.794922,4384.102539,4047.692383,4351.794922,4202.05127,4842.563965,4304.102539,4476.410156,4784.102539,4436.410156,4569.743652
4311.794922,4458.461426,4210.256348,4611.282227,4376.410156,4044.615479,4347.179688,4198.461426,4844.615234,4314.871582,4473.846191,4779.487305,4442.563965,4561.538574
4323.077148,4469.230957,4215.384766,4618.974121,4385.641113,4051.281982,4352.820313,4207.692383,4849.743652,4331.794922,4501.025879,4782.05127,4448.717773,4567.179688
4329.743652,4473.846191,4218.461426,4615.897461,4398.461426,4058.461426,4358.974121,4217.436035,4848.717773,4328.205078,4498.974121,4778.974121,4447.692383,4568.205078
4311.794922,4457.436035,4205.128418,4600,4384.615234,4052.307617,4354.358887,4212.307617,4840,4303.077148,4468.717773,4765.128418,4429.230957,4548.205078
4304.102539,4452.307617,4197.94873,4597.436035,4375.897461,4047.179443,4349.230957,4212.307617,4842.05127,4301.025879,4469.230957,4758.461426,4418.974121,4540
4320,4463.589844,4204.615234,4604.102539,4384.615234,4055.897461,4353.333496,4220,4846.666504,4312.820313,4482.05127,4763.077148,4427.179688,4551.794922
4326.153809,4466.153809,4205.641113,4601.025879,4382.563965,4058.974365,4360.512695,4218.461426,4843.077148,4312.307617,4482.563965,4763.589844,4431.282227,4552.307617
4324.615234,4468.717773,4203.077148,4597.436035,4385.641113,4059.487061,4369.230957,4220.512695,4848.205078,4318.461426,4475.897461,4762.05127,4427.692383,4549.743652
4329.230957,4477.94873,4204.102539,4600.512695,4401.025879,4063.589844,4369.743652,4232.820313,4859.487305,4322.05127,4461.025879,4768.205078,4420,4553.846191
4331.794922,4481.025879,4203.589844,4601.538574,4397.436035,4062.05127,4361.538574,4229.230957,4858.461426,4316.922852,4465.641113,4768.717773,4418.461426,4547.692383
4328.717773,4480.512695,4208.205078,4600,4387.179688,4064.102539,4363.077148,4216.922852,4856.410156,4337.436035,4492.307617,4763.589844,4428.205078,4540.512695
4325.128418,4479.487305,4213.333496,4597.436035,4392.307617,4066.153809,4364.102539,4217.94873,4862.563965,4351.282227,4495.384766,4764.102539,4422.563965,4541.538574
4327.692383,4483.589844,4211.282227,4597.436035,4396.410156,4061.025635,4354.358887,4218.974121,4862.563965,4333.333496,4484.615234,4768.717773,4408.717773,4539.487305
4334.871582,4493.846191,4205.641113,4598.461426,4390.256348,4058.461426,4352.307617,4212.307617,4853.846191,4333.333496,4488.717773,4769.230957,4426.153809,4539.487305
4327.692383,4488.205078,4195.897461,4590.769043,4385.128418,4060.512939,4359.487305,4212.307617,4846.153809,4343.077148,4483.077148,4762.05127,4434.871582,4540
4308.205078,4462.563965,4183.077148,4574.871582,4380,4059.487061,4361.025879,4214.358887,4845.128418,4327.179688,4464.102539,4752.820313,4406.666504,4528.205078
4304.615234,4452.307617,4179.487305,4567.179688,4375.897461,4058.974365,4362.563965,4215.897461,4846.666504,4322.563965,4467.179688,4748.205078,4397.94873,4519.487305
4317.94873,4468.717773,4186.666504,4570.256348,4381.025879,4061.025635,4366.666504,4216.410156,4847.692383,4340,4481.538574,4748.717773,4415.384766,4524.102539
4323.589844,4475.384766,4187.692383,4573.846191,4385.128418,4054.871826,4362.563965,4207.692383,4844.615234,4342.05127,4475.897461,4746.666504,4414.358887,4526.153809
4317.94873,4459.487305,4182.563965,4571.282227,4373.846191,4048.205078,4354.871582,4196.410156,4833.846191,4320.512695,4458.461426,4742.05127,4394.871582,4518.974121
4320,4456.410156,4185.128418,4568.205078,4362.05127,4049.743652,4352.307617,4193.846191,4831.794922,4317.94873,4460.512695,4744.615234,4386.153809,4520.512695
4335.897461,4475.897461,4202.05127,4577.436035,4373.846191,4058.974365,4361.025879,4204.102539,4844.102539,4349.743652,4477.94873,4757.94873,4401.538574,4534.358887
4344.102539,4483.077148,4210.769043,4588.205078,4385.128418,4064.615479,4368.717773,4214.871582,4849.743652,4367.179688,4480.512695,4764.615234,4414.358887,4540.512695
4339.487305,4475.897461,4202.563965,4580,4384.615234,4061.025635,4362.563965,4216.922852,4848.717773,4357.94873,4467.692383,4764.615234,4403.077148,4536.922852
4335.897461,4476.922852,4201.025879,4568.205078,4387.179688,4058.974365,4356.922852,4215.384766,4855.384766,4366.153809,4470.256348,4766.153809,4397.436035,4534.871582
4332.307617,4479.487305,4200.512695,4568.717773,4388.205078,4061.025635,4356.410156,4206.153809,4854.358887,4373.846191,4481.538574,4758.974121,4404.102539,4529.230957
4326.666504,4476.410156,4188.717773,4569.743652,4383.077148,4055.384521,4353.333496,4188.717773,4842.563965,4353.333496,4469.743652,4748.717773,4396.922852,4518.461426
4324.615234,4473.846191,4187.179688,4568.717773,4378.461426,4048.205078,4354.871582,4186.153809,4838.974121,4336.922852,4458.461426,4750.769043,4384.615234,4516.410156
4329.743652,4476.410156,4197.94873,4569.743652,4373.846191,4055.897461,4364.615234,4201.025879,4842.563965,4347.179688,4475.384766,4754.358887,4389.743652,4522.563965
4334.358887,4477.436035,4205.128418,4561.538574,4372.307617,4064.615479,4367.692383,4206.153809,4844.102539,4363.077148,4481.025879,4751.282227,4398.461426,4521.025879
4331.282227,4472.820313,4198.974121,4552.307617,4378.461426,4057.94873,4360.512695,4197.94873,4840,4354.358887,4461.025879,4748.205078,4389.230957,4513.333496
4323.589844,4471.282227,4189.743652,4562.05127,4382.563965,4052.820557,4354.358887,4189.743652,4831.282227,4326.666504,4453.333496,4738.974121,4373.846191,4500.512695
4321.025879,4473.846191,4185.128418,4570.769043,4381.025879,4057.94873,4354.871582,4184.615234,4826.666504,4320.512695,4454.871582,4728.717773,4369.743652,4490.769043
4324.615234,4469.230957,4186.153809,4561.025879,4375.897461,4061.025635,4361.538574,4181.025879,4825.641113,4327.179688,4447.179688,4729.230957,4368.205078,4493.333496
4326.153809,4468.205078,4190.256348,4556.922852,4373.333496,4058.461426,4367.179688,4183.589844,4828.205078,4322.05127,4440,4735.384766,4366.153809,4495.897461
4325.128418,4473.333496,4189.230957,4562.05127,4369.230957,4053.846191,4364.615234,4189.230957,4829.230957,4316.922852,4436.410156,4735.384766,4365.128418,4490.769043
4325.128418,4471.282227,4186.666504,4555.384766,4358.974121,4050.256348,4357.436035,4188.717773,4827.692383,4325.128418,4441.538574,4731.794922,4361.025879,4487.692383
4328.717773,4470.769043,4188.717773,4551.282227,4354.871582,4049.743652,4355.384766,4189.743652,4836.410156,4335.384766,4448.717773,4736.410156,4363.077148,4494.871582
4338.974121,4485.128418,4199.487305,4564.102539,4363.077148,4051.281982,4357.94873,4198.461426,4846.153809,4341.025879,4446.153809,4751.794922,4379.487305,4506.153809
4348.205078,4496.922852,4205.128418,4575.384766,4374.358887,4050.769287,4354.358887,4193.846191,4837.94873,4350.256348,4449.230957,4758.461426,4387.179688,4511.794922
4343.077148,4485.641113,4196.922852,4567.692383,4378.974121,4050.256348,4345.641113,4171.794922,4824.102539,4357.436035,4460,4745.641113,4372.820313,4506.666504
4339.487305,4481.538574,4193.846191,4558.974121,4380,4051.794922,4341.025879,4168.717773,4824.615234,4352.820313,4462.563965,4735.384766,4368.205078,4504.102539
4352.307617,4498.974121,4202.05127,4560.512695,4383.077148,4058.461426,4345.128418,4181.025879,4835.384766,4354.358887,4463.589844,4737.436035,4385.641113,4508.205078
4355.897461,4503.077148,4198.974121,4561.538574,4382.563965,4060.512939,4349.230957,4179.487305,4841.538574,4364.102539,4458.974121,4734.358887,4386.153809,4500.512695
4343.589844,4489.743652,4186.666504,4554.358887,4374.358887,4058.461426,4355.897461,4180.512695,4843.589844,4360.512695,4445.641113,4731.282227,4367.179688,4489.743652
4345.128418,4489.743652,4185.128418,4553.846191,4372.820313,4064.615479,4365.641113,4193.333496,4848.205078,4356.410156,4445.128418,4734.358887,4363.077148,4493.846191
4344.615234,4490.256348,4186.666504,4552.307617,4374.871582,4066.153809,4364.102539,4189.743652,4842.563965,4358.974121,4445.641113,4723.077148,4362.05127,4491.794922
4329.230957,4474.871582,4181.538574,4544.102539,4368.717773,4059.487061,4355.897461,4181.025879,4833.333496,4344.615234,4430.256348,4707.692383,4346.153809,4474.871582
4326.666504,4470.256348,4178.974121,4544.615234,4369.230957,4060,4355.897461,4192.307617,4836.922852,4327.692383,4426.666504,4713.846191,4337.436035,4470.256348
4329.743652,4475.897461,4172.820313,4542.563965,4369.230957,4058.461426,4355.897461,4193.846191,4835.897461,4328.717773,4427.179688,4716.922852,4328.717773,4473.846191
4327.692383,4474.871582,4171.282227,4538.974121,4364.615234,4058.974365,4358.974121,4189.230957,4827.692383,4333.846191,4412.307617,4710.769043,4311.794922,4471.794922
4333.846191,4471.282227,4183.589844,4548.205078,4368.205078,4066.666748,4370.256348,4201.025879,4831.794922,4344.102539,4410.256348,4717.436035,4312.307617,4473.333496
4341.538574,4474.871582,4186.153809,4555.897461,4365.128418,4062.05127,4367.692383,4193.846191,4830.256348,4352.820313,4418.974121,4720.512695,4327.692383,4477.94873
4341.025879,4486.153809,4180,4553.333496,4354.871582,4050.769287,4351.794922,4166.666504,4823.589844,4347.692383,4411.282227,4710.256348,4325.641113,4476.410156
4342.05127,4488.717773,4181.025879,4548.717773,4364.615234,4056.410156,4351.282227,4164.615234,4827.692383,4343.589844,4410.769043,4705.641113,4313.846191,4473.846191
4340.512695,4477.94873,4180.512695,4546.666504,4371.794922,4063.589844,4359.487305,4174.358887,4821.538574,4338.974121,4419.487305,4706.666504,4310.256348,4471.794922
4333.846191,4472.307617,4171.794922,4548.717773,4351.282227,4056.410156,4358.461426,4167.179688,4813.333496,4334.871582,4411.794922,4703.589844,4310.256348,4465.128418
4333.846191,4477.436035,4167.692383,4554.871582,4348.205078,4052.820557,4355.384766,4165.641113,4824.102539,4347.179688,4406.153809,4702.05127,4311.794922,4459.487305
4333.846191,4474.871582,4166.153809,4551.794922,4364.615234,4058.974365,4361.025879,4173.846191,4831.282227,4360,4415.384766,4698.974121,4310.256348,4458.461426
4337.436035,4478.461426,4168.205078,4548.205078,4361.025879,4061.025635,4368.205078,4175.384766,4827.179688,4360,4414.358887,4693.333496,4304.102539,4460
4342.563965,4492.307617,4169.230957,4554.871582,4354.358887,4061.538574,4366.153809,4173.333496,4827.179688,4362.05127,4407.692383,4689.230957,4300,4457.436035
4335.384766,4486.666504,4161.025879,4554.871582,4361.538574,4062.564209,4360,4170.256348,4827.179688,4365.641113,4404.102539,4684.102539,4296.922852,4448.205078
4329.743652,4475.384766,4155.897461,4550.769043,4367.692383,4063.076904,4359.487305,4170.256348,4826.666504,4361.025879,4403.077148,4684.102539,4294.871582,4442.563965
4335.897461,4478.974121,4158.974121,4553.846191,4368.205078,4061.025635,4358.974121,4172.307617,4832.307617,4354.871582,4403.077148,4686.666504,4292.307617,4447.179688
4334.871582,4478.974121,4154.871582,4555.897461,4363.077148,4060,4353.846191,4164.615234,4824.102539,4348.717773,4392.307617,4682.05127,4285.128418,4444.615234
4322.05127,4469.743652,4140,4551.794922,4353.846191,4060,4353.846191,4157.94873,4809.743652,4342.563965,4382.05127,4667.179688,4275.384766,4429.743652
4318.974121,4474.358887,4133.846191,4549.230957,4355.897461,4061.025635,4360.512695,4163.077148,4817.94873,4350.769043,4386.153809,4654.871582,4276.410156,4423.077148
4322.563965,4481.538574,4137.436035,4552.307617,4361.538574,4066.153809,4367.692383,4167.179688,4825.641113,4357.94873,4383.589844,4660,4281.025879,4426.666504
4324.102539,4480,4138.974121,4558.461426,4355.384766,4067.179443,4368.205078,4163.589844,4815.897461,4353.846191,4378.461426,4670.256348,4274.871582,4429.743652
4330.256348,4486.153809,4145.641113,4567.179688,4353.333496,4062.05127,4363.589844,4164.615234,4816.410156,4352.307617,4395.384766,4668.205078,4270.256348,4429.230957
4334.871582,4493.333496,4152.820313,4573.846191,4358.974121,4059.487061,4355.384766,4168.205078,4827.179688,4354.871582,4409.230957,4664.102539,4275.384766,4430.256348
4336.410156,4490.769043,4153.846191,4573.333496,4366.666504,4058.974365,4346.666504,4167.179688,4827.179688,4362.563965,4404.102539,4673.333496,4287.179688,4438.461426
4342.563965,4494.358887,4156.410156,4566.153809,4377.94873,4063.076904,4352.820313,4170.256348,4828.205078,4375.384766,4405.641113,4683.589844,4295.384766,4448.717773
4342.05127,4490.769043,4152.820313,4554.358887,4371.794922,4068.205078,4363.589844,4165.641113,4829.230957,4371.794922,4407.179688,4676.410156,4286.666504,4444.102539
4323.077148,4470.769043,4137.94873,4542.05127,4349.230957,4063.076904,4363.589844,4152.820313,4817.436035,4344.615234,4389.743652,4658.974121,4265.641113,4425.641113
4309.743652,4461.538574,4126.666504,4535.384766,4342.05127,4055.897461,4361.538574,4149.743652,4807.179688,4331.794922,4370.256348,4647.692383,4252.820313,4411.794922
4318.461426,4472.307617,4124.102539,4538.974121,4352.307617,4060,4362.563965,4150.256348,4808.205078,4352.307617,4376.410156,4646.666504,4257.436035,4414.358887
4328.205078,4483.589844,4127.692383,4548.205078,4354.358887,4062.564209,4358.974121,4153.333496,4819.487305,4373.333496,4397.436035,4647.179688,4271.282227,4424.102539
4329.230957,4485.128418,4135.897461,4555.384766,4351.794922,4058.974365,4351.282227,4164.102539,4828.717773,4372.307617,4400,4645.128418,4281.025879,4427.179688
4331.794922,4478.974121,4140,4553.333496,4355.897461,4060,4348.717773,4169.743652,4821.538574,4361.538574,4392.307617,4650.769043,4273.333496,4427.692383
4337.436035,4473.333496,4140.512695,4544.615234,4358.461426,4063.076904,4353.846191,4165.128418,4811.794922,4357.94873,4398.974121,4657.436035,4262.05127,4429.743652
4337.436035,4475.384766,4142.05127,4544.615234,4358.974121,4067.179443,4364.615234,4165.128418,4814.871582,4365.641113,4397.94873,4651.282227,4265.128418,4425.641113
4333.846191,4482.05127,4138.974121,4553.333496,4362.05127,4073.846191,4368.205078,4167.179688,4821.538574,4368.717773,4383.077148,4641.538574,4268.205078,4422.05127
4334.871582,4487.692383,4134.358887,4553.333496,4361.538574,4073.846191,4368.205078,4167.179688,4825.128418,4362.563965,4387.179688,4645.641113,4265.641113,4427.692383
4339.487305,4493.333496,4136.410156,4548.717773,4361.538574,4068.205078,4366.666504,4166.666504,4827.179688,4366.153809,4401.538574,4652.820313,4267.179688,4432.820313
4338.461426,4494.358887,4137.94873,4553.333496,4361.025879,4061.025635,4359.487305,4169.230957,4822.563965,4378.461426,4395.897461,4648.205078,4268.717773,4430.769043
4329.230957,4493.846191,4135.384766,4555.384766,4353.846191,4057.435791,4358.461426,4168.717773,4815.897461,4381.538574,4388.717773,4636.922852,4262.05127,4425.128418
4325.128418,4492.307617,4133.333496,4543.589844,4347.692383,4063.076904,4364.102539,4157.94873,4815.897461,4371.794922,4390.769043,4628.717773,4252.307617,4414.871582
4333.846191,4491.282227,4136.410156,4542.05127,4356.410156,4075.384521,4369.743652,4158.461426,4823.077148,4360,4385.641113,4636.922852,4251.282227,4416.922852
4340.512695,4496.922852,4138.461426,4553.846191,4370.256348,4082.05127,4371.794922,4169.230957,4831.794922,4368.717773,4393.333496,4644.615234,4261.025879,4429.230957
4336.410156,4501.025879,4134.871582,4556.922852,4375.384766,4078.461426,4370.256348,4161.025879,4827.179688,4386.153809,4405.128418,4637.436035,4272.307617,4430.256348
4334.871582,4497.94873,4132.820313,4554.358887,4373.846191,4074.871826,4366.153809,4149.230957,4816.410156,4371.794922,4390.256348,4632.307617,4276.410156,4425.641113
4336.410156,4491.794922,4133.846191,4552.820313,4371.282227,4072.820557,4365.641113,4158.974121,4811.282227,4335.897461,4380.512695,4634.358887,4273.333496,4426.666504
4330.769043,4489.743652,4135.897461,4545.641113,4378.461426,4074.871826,4375.897461,4170.769043,4816.922852,4326.153809,4393.333496,4634.358887,4275.384766,4427.179688
4325.641113,4491.794922,4137.94873,4538.974121,4389.230957,4077.435791,4384.102539,4172.820313,4823.077148,4321.538574,4391.282227,4634.871582,4288.205078,4426.666504
4324.102539,4487.692383,4133.846191,4538.461426,4379.487305,4071.794922,4375.384766,4163.589844,4820,4305.128418,4374.871582,4629.230957,4303.077148,4428.717773
4314.358887,4478.461426,4125.641113,4535.384766,4369.230957,4068.205078,4363.589844,4152.307617,4813.333496,4304.615234,4374.358887,4618.461426,4315.897461,4426.153809
4305.641113,4472.307617,4126.666504,4535.384766,4385.641113,4070.256348,4362.563965,4159.487305,4814.871582,4305.128418,4376.410156,4618.461426,4328.717773,4424.615234
4307.692383,4474.358887,4132.307617,4537.436035,4399.487305,4069.743652,4360.512695,4165.128418,4817.94873,4292.820313,4364.615234,4622.563965,4334.871582,4431.794922
4310.256348,4477.94873,4130.256348,4535.897461,4396.410156,4069.743652,4353.846191,4154.871582,4812.307617,4287.179688,4367.179688,4617.94873,4336.922852,4435.384766
4311.794922,4475.897461,4131.794922,4535.897461,4399.487305,4075.897461,4352.820313,4152.307617,4810.769043,4295.384766,4392.307617,4617.94873,4345.641113,4432.307617
4316.410156,4476.922852,4133.846191,4537.436035,4402.563965,4076.923096,4350.256348,4160.512695,4820.512695,4295.897461,4401.538574,4624.615234,4351.282227,4433.846191
4329.230957,4487.692383,4137.436035,4545.128418,4405.128418,4076.410156,4347.179688,4163.589844,4827.692383,4292.820313,4393.846191,4633.846191,4356.410156,4444.102539
4341.025879,4497.436035,4148.205078,4554.871582,4412.307617,4085.128174,4354.871582,4172.307617,4829.230957,4297.94873,4401.538574,4643.077148,4370.769043,4451.282227
4334.871582,4489.230957,4146.666504,4545.128418,4407.692383,4084.615479,4357.436035,4177.436035,4830.256348,4303.077148,4404.615234,4634.358887,4366.153809,4444.615234
4322.563965,4480.512695,4134.358887,4530.769043,4391.794922,4075.384521,4351.794922,4170.769043,4829.230957,4304.615234,4387.179688,4621.538574,4341.538574,4435.897461
4325.641113,4484.102539,4142.05127,4540,4390.769043,4075.897461,4350.769043,4167.692383,4828.205078,4308.205078,4385.128418,4631.282227,4346.666504,4437.94873
4340.512695,4495.897461,4157.94873,4554.358887,4408.205078,4082.05127,4353.333496,4176.922852,4836.922852,4313.846191,4405.128418,4647.179688,4377.436035,4452.307617
4346.153809,4506.666504,4150.256348,4554.358887,4415.384766,4081.538574,4348.717773,4181.538574,4845.128418,4321.538574,4415.897461,4640,4386.153809,4460.512695
4338.974121,4504.102539,4137.94873,4551.282227,4409.230957,4082.05127,4344.102539,4172.820313,4843.077148,4328.205078,4418.461426,4622.563965,4381.538574,4452.307617
4328.717773,4491.794922,4134.871582,4545.641113,4406.153809,4089.230713,4348.717773,4167.179688,4843.589844,4320.512695,4417.94873,4618.461426,4380,4445.128418
4318.461426,4484.615234,4126.153809,4537.436035,4406.153809,4090.256348,4350.769043,4168.205078,4841.025879,4304.102539,4400.512695,4615.384766,4369.230957,4440.512695
4320,4488.717773,4125.641113,4543.077148,4402.563965,4091.281982,4357.94873,4176.410156,4840.512695,4316.410156,4400,4614.871582,4368.205078,4444.102539
4334.871582,4492.820313,4140.512695,4551.794922,4400.512695,4096.410156,4369.743652,4187.179688,4854.871582,4342.05127,4425.641113,4629.743652,4383.589844,4457.94873
4339.487305,4489.230957,4145.128418,4547.692383,4397.436035,4092.820557,4364.615234,4187.692383,4857.94873,4340.512695,4428.717773,4640,4384.102539,4464.615234
4333.333496,4488.717773,4138.974121,4550.256348,4399.487305,4087.179443,4356.410156,4183.589844,4844.102539,4324.615234,4408.205078,4634.871582,4374.871582,4460.512695
4335.897461,4490.256348,4139.487305,4558.461426,4411.282227,4091.794922,4365.641113,4183.589844,4841.025879,4323.589844,4407.179688,4631.794922,4373.333496,4460.512695
4332.307617,4481.538574,4141.025879,4548.717773,4408.717773,4091.794922,4360.512695,4176.922852,4845.641113,4327.692383,4417.436035,4627.179688,4368.205078,4460
4314.358887,4470.769043,4136.410156,4533.846191,4394.358887,4080.512939,4340.512695,4165.641113,4842.05127,4326.153809,4411.794922,4614.871582,4357.94873,4448.717773
4309.743652,4469.743652,4133.333496,4533.846191,4392.307617,4077.94873,4336.410156,4165.641113,4837.436035,4320.512695,4403.589844,4610.769043,4347.179688,4441.025879
4322.05127,4480.512695,4137.436035,4546.153809,4401.538574,4089.743652,4346.153809,4174.358887,4843.077148,4322.563965,4405.128418,4612.820313,4351.794922,4448.717773
4329.230957,4490.769043,4138.461426,4551.794922,4405.641113,4095.897461,4350.769043,4180,4852.820313,4332.307617,4409.743652,4610.769043,4371.794922,4461.025879
4325.128418,4480.512695,4127.179688,4542.563965,4398.461426,4094.358887,4354.871582,4181.538574,4852.307617,4329.230957,4414.358887,4612.820313,4369.230957,4462.563965
4322.563965,4469.743652,4125.641113,4536.410156,4397.436035,4103.077148,4367.179688,4185.128418,4847.692383,4325.128418,4415.384766,4615.384766,4354.358887,4458.461426
4328.717773,4483.589844,4133.846191,4544.615234,4406.153809,4110.256348,4372.307617,4182.05127,4850.256348,4344.102539,4415.384766,4616.410156,4365.641113,4465.128418
4326.153809,4485.641113,4127.179688,4543.077148,4397.94873,4098.461426,4362.05127,4168.205078,4847.179688,4354.871582,4416.922852,4615.384766,4374.358887,4470.769043
4321.538574,4474.871582,4122.05127,4536.410156,4385.641113,4084.615479,4357.436035,4174.358887,4843.589844,4342.563965,4421.025879,4617.436035,4366.666504,4468.717773
4329.230957,4482.05127,4136.410156,4549.743652,4393.846191,4092.820557,4366.153809,4199.487305,4854.358887,4343.589844,4429.230957,4623.589844,4373.846191,4473.333496
4332.820313,4485.128418,4140.512695,4556.410156,4399.487305,4103.589844,4370.256348,4207.179688,4865.128418,4355.384766,4432.307617,4629.230957,4379.487305,4480
4325.641113,4473.333496,4130.769043,4543.077148,4395.384766,4100,4365.128418,4196.922852,4862.05127,4350.769043,4424.102539,4630.769043,4366.666504,4478.974121
4322.563965,4471.794922,4127.179688,4536.410156,4395.384766,4093.333252,4358.974121,4185.128418,4848.717773,4334.358887,4410.769043,4625.128418,4361.538574,4474.358887
4324.102539,4476.410156,4128.717773,4543.077148,4391.794922,4089.743652,4351.282227,4181.538574,4845.641113,4324.615234,4412.307617,4623.589844,4369.230957,4475.384766
4327.692383,4476.922852,4136.410156,4551.794922,4390.256348,4092.307617,4355.384766,4191.282227,4858.974121,4336.410156,4429.230957,4632.307617,4372.820313,4480.512695
4327.179688,4478.461426,4136.922852,4556.410156,4398.461426,4096.410156,4364.102539,4194.358887,4857.94873,4348.717773,4429.230957,4630.256348,4367.179688,4478.974121
4315.897461,4473.846191,4123.077148,4551.282227,4399.487305,4097.436035,4363.589844,4182.05127,4842.563965,4338.461426,4414.871582,4617.436035,4364.102539,4472.307617
4311.282227,4473.846191,4117.436035,4541.025879,4395.897461,4098.461426,4366.153809,4179.487305,4842.563965,4323.589844,4409.743652,4611.282227,4366.153809,4471.282227
4318.461426,4484.102539,4121.025879,4540,4398.461426,4103.077148,4373.333496,4184.615234,4849.743652,4324.102539,4410.256348,4607.179688,4364.615234,4472.307617
4321.025879,4490.256348,4120,4544.615234,4398.974121,4107.692383,4374.358887,4184.615234,4844.615234,4330.256348,4412.307617,4607.179688,4364.615234,4471.282227
4321.025879,4486.666504,4121.025879,4544.615234,4397.436035,4108.717773,4370.769043,4183.589844,4842.563965,4334.871582,4415.384766,4616.922852,4373.333496,4474.871582
4319.487305,4480.512695,4122.05127,4538.461426,4395.897461,4110.769043,4370.769043,4185.128418,4850.769043,4332.307617,4414.871582,4615.897461,4374.358887,4475.897461
4314.358887,4475.897461,4116.922852,4535.897461,4393.846191,4110.256348,4370.769043,4193.333496,4858.974121,4327.179688,4417.436035,4610.769043,4367.692383,4473.333496
4313.333496,4473.846191,4117.436035,4543.589844,4401.025879,4107.179688,4370.256348,4199.487305,4859.487305,4340.512695,4428.717773,4613.333496,4372.307617,4480.512695
4321.025879,4481.538574,4124.615234,4553.333496,4412.820313,4108.717773,4371.794922,4196.410156,4857.94873,4352.820313,4431.282227,4618.461426,4381.025879,4490.769043
4327.692383,4488.717773,4129.743652,4556.410156,4409.743652,4110.769043,4370.769043,4197.436035,4863.077148,4349.230957,4425.641113,4626.153809,4377.94873,4492.820313
4324.615234,4481.025879,4127.179688,4548.717773,4394.871582,4102.563965,4364.102539,4203.589844,4863.589844,4352.820313,4433.846191,4628.205078,4371.282227,4490.769043
4317.436035,4472.307617,4122.563965,4537.94873,4389.230957,4095.897461,4365.128418,4201.538574,4861.025879,4365.128418,4443.589844,4622.563965,4372.820313,4490.256348
4323.077148,4474.871582,4122.563965,4536.410156,4399.487305,4105.641113,4377.94873,4200.512695,4868.717773,4373.333496,4441.025879,4623.589844,4381.025879,4493.333496
4328.717773,4477.436035,4123.589844,4541.538574,4395.897461,4110.256348,4385.641113,4201.025879,4870.769043,4367.692383,4428.717773,4625.641113,4376.410156,4495.384766
4320,4471.794922,4121.025879,4541.025879,4376.922852,4098.974121,4376.922852,4189.743652,4857.94873,4347.179688,4415.384766,4622.563965,4360,4491.794922
4318.461426,4465.128418,4119.487305,4537.94873,4381.025879,4091.281982,4366.153809,4178.974121,4851.794922,4340,4422.05127,4627.179688,4355.897461,4489.743652
4326.153809,4458.974121,4123.077148,4537.94873,4398.461426,4091.794922,4366.153809,4183.077148,4859.487305,4353.846191,4435.897461,4634.358887,4367.179688,4497.94873
4323.589844,4458.461426,4123.077148,4538.461426,4389.743652,4093.846191,4373.846191,4194.871582,4861.025879,4361.025879,4432.307617,4632.820313,4368.205078,4505.128418
4317.94873,4461.025879,4122.05127,4537.94873,4375.897461,4100.512695,4379.487305,4201.025879,4858.974121,4358.461426,4428.205078,4631.282227,4361.025879,4505.128418
4320,4463.589844,4121.538574,4535.897461,4383.077148,4106.153809,4382.563965,4201.025879,4866.666504,4365.128418,4440,4631.282227,4362.05127,4505.641113
4321.538574,4468.717773,4119.487305,4539.487305,4384.615234,4105.128418,4387.179688,4206.666504,4874.358887,4367.692383,4445.641113,4628.717773,4368.717773,4506.153809
4325.128418,4481.025879,4119.487305,4551.794922,4377.436035,4106.153809,4386.153809,4217.436035,4877.436035,4363.589844,4445.128418,4625.641113,4376.922852,4506.666504
4328.717773,4488.717773,4121.538574,4557.436035,4388.205078,4110.256348,4375.897461,4219.487305,4878.974121,4372.307617,4452.307617,4626.153809,4380.512695,4510.256348
4323.077148,4478.974121,4117.94873,4553.333496,4400.512695,4107.179688,4363.589844,4204.615234,4876.922852,4382.563965,4448.205078,4624.102539,4368.717773,4508.205078
4322.563965,4471.794922,4113.846191,4551.282227,4397.94873,4107.692383,4365.128418,4198.974121,4878.974121,4386.153809,4438.974121,4621.538574,4358.974121,4505.128418
4333.333496,4485.641113,4121.025879,4553.333496,4395.897461,4119.487305,4385.641113,4222.563965,4892.820313,4393.333496,4451.282227,4633.846191,4369.230957,4518.974121
4332.307617,4492.307617,4126.153809,4551.794922,4398.974121,4126.153809,4397.94873,4239.487305,4899.487305,4403.077148,4461.538574,4641.538574,4377.94873,4526.666504
4318.974121,4475.384766,4118.461426,4552.307617,4394.871582,4119.487305,4390.256348,4222.05127,4892.820313,4403.077148,4454.358887,4628.205078,4369.743652,4510.769043
4318.461426,4468.717773,4116.410156,4554.871582,4381.538574,4110.769043,4388.205078,4213.333496,4887.692383,4382.563965,4448.205078,4624.615234,4357.436035,4507.692383
4324.615234,4474.871582,4121.025879,4549.743652,4372.820313,4107.692383,4397.436035,4222.05127,4879.487305,4369.230957,4442.563965,4635.897461,4352.820313,4520.512695
4329.230957,4475.384766,4124.102539,4553.846191,4388.205078,4112.820313,4396.922852,4218.461426,4876.410156,4388.717773,4444.102539,4639.487305,4357.94873,4524.615234
4331.282227,4475.384766,4123.589844,4564.615234,4401.025879,4115.897461,4384.102539,4211.282227,4881.538574,4408.717773,4458.974121,4639.487305,4365.128418,4524.102539
4328.717773,4475.897461,4121.538574,4555.897461,4380,4106.153809,4376.410156,4213.333496,4879.487305,4396.922852,4462.563965,4644.615234,4366.153809,4529.743652
4337.94873,4479.487305,4128.717773,4551.282227,4376.922852,4104.102539,4379.487305,4220,4883.077148,4400.512695,4460,4650.256348,4369.743652,4535.897461
4353.333496,4489.743652,4142.05127,4570.769043,4401.025879,4114.358887,4385.128418,4228.205078,4898.974121,4425.128418,4475.384766,4658.461426,4384.102539,4546.666504
4350.256348,4492.820313,4136.922852,4577.94873,4397.436035,4114.871582,4380.512695,4230.256348,4900.512695,4418.974121,4482.05127,4663.589844,4389.230957,4552.820313
4343.589844,4490.769043,4128.205078,4569.230957,4381.538574,4112.307617,4377.94873,4222.563965,4890.256348,4403.589844,4474.871582,4657.436035,4384.615234,4546.666504
4350.256348,4491.282227,4134.871582,4572.307617,4387.179688,4117.94873,4389.230957,4217.94873,4891.794922,4411.794922,4483.589844,4650.769043,4385.641113,4542.563965
4344.615234,4481.538574,4130.769043,4568.205078,4387.692383,4113.846191,4393.846191,4216.922852,4890.769043,4417.436035,4487.179688,4646.666504,4384.102539,4539.487305
4327.179688,4469.230957,4111.794922,4552.307617,4377.436035,4104.615234,4388.717773,4214.871582,4880,4405.641113,4466.666504,4642.05127,4372.820313,4532.820313
4321.025879,4471.794922,4104.615234,4551.282227,4374.358887,4105.641113,4393.846191,4216.410156,4880.512695,4390.256348,4452.307617,4639.487305,4352.820313,4525.128418
4325.128418,4474.358887,4106.666504,4555.384766,4372.307617,4107.692383,4400,4221.025879,4890.256348,4391.794922,4457.94873,4636.922852,4347.179688,4526.666504
4332.307617,4472.820313,4107.692383,4556.922852,4365.641113,4104.102539,4390.769043,4217.436035,4885.128418,4407.179688,4464.102539,4636.922852,4367.692383,4533.846191
4338.974121,4480.512695,4114.358887,4564.615234,4369.230957,4103.077148,4379.487305,4211.794922,4877.436035,4419.487305,4473.333496,4641.538574,4384.615234,4541.538574
4344.615234,4491.282227,4122.05127,4569.743652,4388.205078,4107.179688,4380,4214.358887,4886.666504,4423.077148,4490.256348,4648.717773,4387.179688,4551.282227
4350.769043,4495.897461,4123.589844,4569.230957,4399.487305,4112.307617,4381.538574,4217.436035,4892.307617,4421.025879,4486.666504,4650.256348,4384.102539,4553.846191
4347.179688,4489.230957,4119.487305,4570.256348,4388.717773,4113.846191,4380.512695,4213.333496,4888.717773,4414.871582,4468.717773,4642.05127,4371.282227,4542.05127
4337.94873,4477.436035,4115.897461,4569.230957,4378.461426,4110.256348,4377.94873,4206.153809,4890.769043,4409.743652,4467.179688,4632.307617,4360.512695,4531.282227
4339.487305,4475.897461,4118.461426,4567.179688,4383.589844,4109.230957,4384.615234,4202.563965,4889.230957,4409.230957,4476.410156,4641.538574,4370.256348,4540.512695
4344.102539,4476.410156,4120.512695,4567.692383,4380,4109.230957,4395.384766,4202.05127,4880,4404.615234,4478.974121,4652.820313,4375.897461,4547.179688
4337.436035,4462.563965,4114.871582,4566.153809,4359.487305,4104.615234,4396.410156,4205.641113,4875.384766,4396.410156,4470.769043,4640.512695,4361.538574,4537.94873
4329.230957,4453.846191,4110.769043,4563.589844,4352.820313,4102.563965,4401.025879,4220,4877.436035,4395.384766,4458.974121,4635.384766,4354.358887,4534.871582
4335.384766,4466.666504,4116.410156,4571.282227,4368.717773,4109.230957,4413.846191,4237.94873,4887.692383,4406.153809,4461.025879,4650.256348,4361.538574,4541.025879
4344.102539,4476.922852,4121.538574,4584.615234,4377.436035,4109.743652,4408.205078,4234.358887,4889.230957,4411.794922,4475.897461,4649.230957,4365.128418,4543.077148
4343.589844,4474.358887,4123.077148,4590.256348,4372.307617,4101.025879,4389.230957,4217.436035,4879.487305,4404.102539,4477.436035,4637.436035,4365.128418,4542.563965
4345.641113,4473.846191,4122.05127,4586.153809,4368.717773,4095.897461,4382.05127,4213.846191,4878.974121,4406.666504,4474.871582,4650.256348,4372.820313,4551.794922
4354.871582,4477.436035,4123.077148,4580,4366.666504,4094.871826,4376.410156,4210.256348,4882.563965,4413.333496,4483.589844,4668.717773,4384.615234,4564.615234
4360,4478.974121,4130.256348,4575.384766,4366.153809,4097.94873,4371.794922,4204.615234,4881.025879,4413.846191,4497.436035,4668.205078,4393.333496,4568.717773
4355.384766,4478.461426,4132.820313,4569.743652,4365.128418,4103.589844,4377.94873,4211.794922,4887.179688,4415.897461,4496.922852,4659.487305,4390.256348,4562.563965
4346.666504,4477.436035,4124.615234,4568.205078,4367.692383,4110.256348,4386.153809,4217.94873,4891.282227,4415.384766,4472.307617,4651.282227,4375.384766,4549.743652
4338.461426,4472.820313,4117.436035,4570.256348,4377.436035,4120,4392.820313,4215.897461,4888.717773,4410.769043,4465.128418,4647.179688,4366.153809,4546.153809
4337.94873,4472.820313,4121.025879,4568.717773,4379.487305,4123.589844,4403.077148,4218.461426,4893.333496,4412.820313,4486.666504,4651.794922,4374.358887,4550.256348
4340,4471.794922,4123.077148,4567.179688,4372.820313,4113.333496,4408.205078,4221.538574,4890.769043,4419.487305,4493.333496,4657.436035,4380.512695,4545.128418
4335.384766,4464.102539,4118.974121,4568.717773,4372.307617,4103.589844,4401.538574,4214.358887,4875.384766,4414.871582,4483.077148,4654.358887,4375.384766,4540.512695
4337.94873,4464.102539,4123.077148,4571.794922,4376.410156,4104.615234,4396.410156,4213.846191,4873.333496,4405.128418,4486.153809,4661.025879,4386.153809,4553.846191
4353.846191,4481.538574,4137.436035,4574.358887,4383.589844,4108.717773,4399.487305,4228.205078,4886.153809,4405.128418,4503.589844,4682.563965,4420,4576.922852
4364.615234,4489.743652,4145.641113,4574.871582,4396.922852,4108.205078,4392.820313,4232.307617,4895.384766,4400,4514.358887,4692.307617,4445.641113,4588.205078
4357.94873,4478.974121,4140,4572.307617,4401.025879,4102.563965,4375.897461,4217.436035,4892.820313,4376.410156,4507.179688,4686.666504,4450.769043,4584.615234
4351.282227,4478.461426,4140.512695,4575.384766,4394.358887,4108.205078,4381.538574,4213.846191,4893.333496,4361.538574,4503.077148,4688.205078,4462.05127,4585.128418
4350.769043,4485.641113,4150.256348,4583.077148,4398.974121,4123.589844,4400,4220.512695,4901.025879,4367.692383,4517.94873,4692.307617,4482.563965,4592.820313
4345.128418,4480,4154.358887,4584.615234,4419.487305,4124.615234,4391.282227,4220.512695,4908.205078,4365.128418,4525.641113,4686.153809,4492.820313,4596.922852
4340.512695,4472.307617,4149.230957,4581.025879,4431.282227,4113.333496,4373.333496,4222.563965,4910.769043,4355.897461,4521.025879,4690.256348,4499.487305,4595.384766
4339.487305,4475.897461,4144.102539,4575.897461,4420.512695,4112.820313,4378.461426,4231.794922,4915.897461,4360.512695,4514.871582,4695.897461,4509.743652,4595.384766
4331.282227,4471.282227,4139.487305,4569.230957,4408.717773,4120,4388.717773,4241.538574,4917.436035,4361.538574,4510.769043,4685.641113,4510.769043,4589.743652
4326.153809,4461.538574,4137.436035,4565.128418,4416.410156,4121.025879,4385.128418,4250.769043,4910.769043,4355.897461,4514.871582,4675.384766,4506.153809,4582.05127
4332.307617,4462.563965,4138.461426,4567.692383,4423.077148,4120.512695,4380.512695,4251.282227,4906.666504,4358.461426,4516.922852,4679.487305,4507.692383,4583.077148
4331.282227,4456.410156,4140,4568.205078,4414.358887,4115.897461,4374.871582,4239.487305,4905.641113,4353.846191,4507.692383,4685.128418,4508.205078,4585.128418
4326.666504,4451.794922,4139.487305,4564.615234,4408.717773,4105.641113,4360,4229.230957,4901.025879,4341.025879,4504.102539,4683.589844,4504.102539,4584.615234
4332.307617,4465.641113,4138.461426,4564.615234,4413.333496,4101.538574,4352.820313,4226.666504,4900,4345.128418,4508.205078,4677.94873,4504.102539,4578.461426
4335.897461,4480,4143.077148,4570.256348,4414.871582,4110.256348,4365.128418,4234.358887,4909.743652,4361.538574,4510.256348,4672.307617,4507.179688,4572.307617
4335.897461,4478.461426,4150.769043,4574.871582,4417.436035,4122.563965,4385.128418,4248.717773,4923.077148,4367.179688,4505.641113,4680,4505.641113,4578.974121
4331.794922,4473.846191,4145.128418,4566.153809,4420.512695,4125.641113,4390.256348,4253.333496,4925.128418,4361.538574,4490.769043,4687.179688,4493.846191,4579.487305
4326.153809,4474.358887,4135.384766,4558.974121,4414.358887,4121.538574,4384.102539,4249.230957,4920.512695,4356.922852,4488.205078,4680.512695,4488.717773,4573.846191
4332.307617,4473.333496,4145.128418,4565.641113,4408.717773,4121.538574,4383.077148,4248.717773,4921.025879,4357.436035,4505.128418,4683.589844,4500,4583.077148
4346.153809,4478.461426,4156.410156,4573.846191,4413.333496,4120,4383.589844,4248.717773,4919.487305,4361.025879,4515.384766,4697.436035,4508.205078,4596.410156
4352.820313,4484.615234,4154.871582,4572.820313,4417.94873,4113.333496,4381.025879,4250.256348,4915.384766,4366.666504,4521.025879,4704.615234,4508.205078,4599.487305
4352.820313,4482.05127,4160,4570.256348,4412.307617,4109.230957,4374.358887,4249.743652,4915.384766,4368.205078,4528.205078,4708.717773,4508.205078,4604.615234
4346.153809,4473.846191,4170.256348,4569.230957,4402.563965,4107.179688,4363.077148,4240,4911.794922,4358.461426,4521.538574,4715.384766,4508.205078,4608.205078
4341.025879,4471.282227,4165.641113,4567.179688,4405.641113,4103.589844,4354.871582,4228.717773,4903.077148,4348.205078,4508.717773,4713.846191,4504.615234,4602.563965
4343.077148,4475.897461,4156.410156,4569.230957,4414.358887,4104.102539,4357.436035,4221.025879,4900.512695,4344.102539,4503.589844,4711.282227,4499.487305,4602.563965
4343.077148,4476.922852,4155.384766,4573.846191,4410.256348,4106.666504,4359.487305,4218.461426,4901.538574,4338.461426,4504.615234,4708.717773,4496.922852,4604.102539
4339.487305,4474.358887,4154.358887,4569.743652,4404.615234,4105.128418,4358.461426,4227.692383,4907.179688,4337.94873,4512.820313,4702.05127,4502.05127,4603.077148
4340,4474.871582,4150.769043,4563.077148,4412.307617,4103.589844,4364.102539,4243.077148,4917.94873,4348.717773,4519.487305,4701.025879,4507.692383,4607.692383
4344.102539,4478.461426,4152.307617,4567.179688,4419.487305,4109.230957,4379.487305,4254.871582,4923.077148,4361.025879,4525.641113,4706.666504,4508.717773,4617.94873
4343.589844,4474.358887,4156.922852,4570.256348,4410.769043,4117.94873,4398.974121,4266.666504,4926.153809,4371.794922,4524.102539,4706.666504,4508.717773,4621.538574
4331.794922,4458.461426,4154.358887,4557.436035,4394.871582,4113.333496,4395.384766,4268.205078,4926.153809,4368.717773,4510.769043,4700.512695,4500,4608.717773
4324.102539,4457.94873,4147.179688,4552.820313,4392.307617,4104.102539,4375.897461,4249.743652,4916.922852,4358.461426,4510.769043,4697.94873,4486.666504,4598.974121
4332.820313,4472.307617,4150.256348,4564.615234,4397.94873,4105.128418,4371.794922,4232.820313,4908.205078,4369.743652,4523.589844,4707.692383,4492.820313,4610.769043
4340.512695,4475.384766,4156.922852,4566.153809,4394.871582,4103.077148,4370.256348,4228.205078,4905.128418,4386.153809,4521.025879,4718.974121,4504.102539,4624.615234
4342.563965,4477.94873,4155.897461,4564.102539,4399.487305,4099.487305,4358.461426,4230.256348,4912.820313,4378.974121,4521.025879,4724.102539,4508.717773,4631.794922
4349.743652,4489.230957,4155.384766,4569.743652,4412.307617,4104.102539,4350.769043,4229.743652,4926.666504,4376.922852,4539.487305,4725.641113,4513.333496,4638.461426
4354.358887,4487.692383,4160.512695,4571.794922,4409.743652,4108.205078,4356.410156,4231.794922,4929.743652,4399.487305,4547.692383,4728.205078,4516.922852,4639.487305
4348.205078,4474.358887,4159.487305,4569.230957,4398.461426,4105.128418,4369.743652,4250.256348,4924.102539,4400.512695,4534.871582,4730.769043,4511.282227,4635.384766
4336.922852,4463.589844,4153.333496,4562.05127,4393.846191,4105.128418,4384.102539,4266.153809,4922.563965,4368.717773,4519.487305,4726.666504,4494.871582,4631.282227
4326.153809,4456.410156,4150.256348,4553.333496,4393.333496,4110.256348,4391.794922,4264.615234,4926.666504,4360.512695,4515.897461,4715.897461,4486.666504,4622.563965
4327.179688,4461.025879,4151.794922,4558.461426,4402.563965,4121.025879,4399.487305,4270.769043,4934.871582,4385.641113,4529.230957,4714.871582,4498.974121,4623.077148
4337.94873,4473.333496,4155.897461,4570.256348,4409.230957,4129.743652,4407.179688,4282.563965,4944.615234,4396.410156,4540,4725.641113,4511.282227,4636.410156
4337.436035,4472.307617,4155.384766,4567.692383,4397.436035,4118.974121,4393.333496,4269.743652,4936.410156,4385.128418,4536.410156,4727.179688,4508.717773,4642.05127
4331.282227,4470.769043,4154.358887,4566.153809,4392.307617,4106.153809,4376.410156,4255.897461,4926.666504,4377.94873,4537.436035,4725.641113,4511.282227,4641.025879
4334.871582,4479.487305,4155.897461,4572.307617,4403.077148,4105.128418,4373.333496,4256.410156,4932.820313,4381.538574,4544.615234,4731.794922,4521.538574,4643.589844
4337.94873,4477.436035,4154.871582,4570.769043,4401.538574,4101.025879,4366.153809,4248.717773,4929.743652,4389.230957,4544.102539,4732.820313,4518.461426,4644.102539
4341.025879,4475.384766,4159.487305,4573.846191,4395.897461,4099.487305,4362.563965,4246.666504,4925.641113,4397.94873,4539.487305,4732.820313,4517.94873,4648.205078
4352.307617,4490.769043,4172.820313,4585.641113,4401.538574,4107.692383,4367.179688,4250.256348,4934.358887,4401.025879,4542.05127,4737.436035,4527.179688,4658.974121
4352.820313,4492.820313,4169.230957,4582.563965,4404.102539,4105.128418,4355.897461,4233.846191,4929.230957,4395.897461,4542.563965,4732.307617,4522.05127,4654.358887
4333.846191,4468.205078,4150.256348,4567.179688,4392.307617,4090.769287,4343.077148,4224.615234,4912.820313,4384.102539,4523.077148,4715.897461,4500.512695,4633.333496
4321.538574,4457.436035,4145.641113,4565.641113,4385.128418,4100.512695,4365.641113,4249.230957,4917.94873,4371.794922,4503.077148,4712.307617,4486.153809,4625.641113
4322.05127,4458.461426,4152.820313,4569.230957,4390.256348,4121.538574,4395.384766,4269.743652,4929.230957,4381.025879,4515.897461,4724.615234,4489.743652,4635.897461
4326.666504,4458.461426,4153.333496,4565.641113,4392.307617,4118.974121,4394.358887,4261.538574,4922.563965,4401.025879,4537.436035,4735.384766,4502.05127,4646.153809
4341.025879,4476.922852,4162.05127,4571.794922,4388.717773,4107.692383,4380.512695,4248.717773,4916.922852,4395.897461,4543.077148,4745.641113,4510.256348,4656.922852
4359.487305,4494.358887,4184.102539,4586.153809,4387.692383,4105.641113,4376.410156,4249.743652,4920.512695,4386.153809,4549.743652,4761.025879,4511.282227,4672.820313
4363.077148,4484.102539,4186.153809,4586.666504,4384.615234,4100.512695,4374.871582,4251.794922,4923.589844,4397.436035,4559.487305,4763.589844,4512.820313,4676.410156
4346.666504,4469.743652,4161.538574,4573.846191,4377.94873,4089.743652,4368.205078,4240.512695,4914.871582,4401.025879,4542.563965,4748.205078,4507.692383,4661.538574
4325.128418,4461.538574,4146.153809,4565.128418,4380,4092.307617,4362.563965,4227.692383,4905.128418,4385.641113,4518.974121,4733.333496,4493.333496,4646.666504
4323.077148,4454.871582,4150.256348,4566.153809,4383.077148,4098.461426,4359.487305,4225.641113,4911.282227,4385.641113,4527.692383,4727.179688,4488.717773,4646.153809
4333.333496,4465.128418,4152.820313,4570.256348,4381.025879,4092.307617,4355.897461,4234.358887,4923.589844,4391.794922,4531.282227,4721.538574,4489.743652,4649.230957
4328.205078,4468.717773,4148.205078,4571.282227,4381.025879,4091.281982,4357.94873,4250.256348,4922.563965,4376.410156,4510.256348,4722.563965,4476.410156,4645.641113
4323.077148,4456.922852,4149.743652,4570.256348,4382.563965,4104.102539,4370.769043,4263.589844,4923.077148,4376.410156,4510.256348,4731.282227,4469.743652,4646.666504
4336.922852,4467.179688,4160,4574.871582,4382.563965,4108.717773,4383.589844,4271.282227,4934.871582,4406.153809,4532.307617,4737.436035,4482.563965,4657.436035
4342.563965,4479.487305,4167.692383,4583.077148,4378.974121,4101.025879,4385.128418,4280,4936.922852,4411.282227,4537.94873,4743.077148,4484.615234,4663.077148
4341.538574,4478.461426,4170.256348,4588.717773,4377.436035,4102.05127,4386.153809,4283.077148,4927.179688,4396.410156,4537.436035,4756.410156,4478.974121,4667.179688
4351.282227,4485.641113,4170.769043,4585.128418,4371.282227,4106.666504,4385.128418,4269.743652,4921.025879,4400.512695,4534.358887,4765.641113,4487.179688,4677.436035
4355.897461,4491.282227,4170.256348,4577.436035,4365.128418,4105.128418,4375.897461,4251.794922,4922.563965,4411.282227,4531.282227,4757.94873,4493.846191,4681.538574
4351.794922,4490.769043,4168.717773,4580,4373.333496,4106.666504,4370.769043,4246.153809,4927.179688,4420,4546.666504,4748.717773,4491.282227,4677.436035
4354.871582,4505.641113,4168.717773,4591.282227,4384.615234,4109.230957,4373.333496,4252.820313,4929.230957,4430.256348,4560,4754.871582,4493.846191,4679.487305
4364.615234,4517.436035,4171.282227,4600,4381.538574,4105.128418,4371.794922,4262.05127,4933.846191,4429.230957,4552.307617,4768.205078,4494.358887,4686.153809
4365.641113,4506.666504,4174.358887,4600.512695,4374.358887,4100.512695,4370.769043,4265.128418,4938.974121,4426.153809,4548.717773,4769.230957,4484.615234,4684.102539
4357.436035,4503.589844,4173.333496,4591.794922,4366.666504,4096.410156,4373.333496,4266.666504,4935.384766,4423.589844,4538.461426,4759.487305,4470.769043,4671.794922
4347.179688,4506.666504,4170.256348,4585.641113,4357.436035,4086.666748,4373.846191,4268.717773,4924.102539,4403.589844,4520.512695,4751.794922,4453.846191,4664.102539
4344.102539,4505.641113,4166.666504,4587.692383,4360,4092.307617,4384.615234,4265.641113,4920,4402.05127,4525.128418,4745.128418,4451.794922,4668.717773
4343.589844,4505.128418,4158.461426,4586.153809,4360,4103.589844,4392.307617,4262.563965,4925.128418,4414.358887,4530.256348,4741.025879,4456.410156,4670.256348
4336.922852,4502.563965,4151.282227,4581.025879,4353.846191,4097.436035,4382.05127,4264.102539,4920,4392.820313,4515.897461,4742.563965,4445.128418,4661.025879
4336.922852,4507.692383,4152.820313,4583.589844,4361.538574,4088.205078,4371.794922,4256.922852,4908.717773,4379.487305,4505.641113,4742.05127,4436.410156,4656.922852
4345.128418,4518.974121,4154.358887,4586.153809,4367.692383,4090.769287,4371.282227,4244.102539,4909.743652,4405.128418,4514.358887,4740.512695,4442.05127,4660.512695
4350.769043,4527.179688,4160.512695,4586.666504,4357.94873,4095.384521,4374.358887,4252.820313,4922.563965,4415.897461,4526.153809,4754.358887,4446.153809,4667.692383
4350.256348,4533.333496,4170.256348,4594.358887,4350.256348,4092.307617,4372.820313,4267.179688,4925.641113,4401.025879,4522.563965,4768.205078,4443.589844,4672.307617
4351.794922,4541.025879,4170.769043,4600,4355.897461,4085.128174,4364.102539,4256.410156,4914.871582,4408.205078,4523.077148,4764.102539,4444.102539,4668.717773
4361.538574,4548.717773,4169.743652,4603.077148,4371.794922,4084.102539,4355.897461,4245.641113,4914.871582,4424.615234,4537.436035,4763.077148,4452.307617,4673.333496
4368.717773,4555.384766,4175.384766,4609.230957,4373.846191,4091.281982,4355.897461,4251.794922,4920.512695,4412.820313,4535.384766,4770.256348,4456.410156,4687.179688
4362.563965,4558.974121,4173.333496,4612.307617,4358.974121,4091.281982,4362.05127,4248.717773,4912.307617,4398.974121,4524.102539,4768.717773,4448.205078,4684.102539
4349.230957,4555.384766,4164.615234,4606.153809,4353.333496,4084.615479,4362.563965,4243.077148,4905.128418,4404.102539,4529.230957,4760.512695,4440.512695,4670.769043
4351.282227,4552.820313,4167.179688,4599.487305,4359.487305,4086.153809,4361.538574,4255.897461,4917.436035,4420.512695,4536.922852,4763.589844,4444.102539,4676.410156
4357.436035,4552.820313,4175.384766,4601.025879,4356.922852,4088.205078,4367.179688,4269.743652,4930.769043,4435.897461,4535.897461,4777.94873,4448.717773,4685.128418
4347.692383,4551.282227,4172.307617,4603.077148,4347.179688,4082.05127,4372.307617,4266.666504,4927.692383,4434.358887,4530.769043,4779.487305,4441.538574,4675.384766
4343.077148,4552.820313,4167.179688,4593.333496,4338.461426,4077.435791,4372.820313,4264.102539,4922.05127,4417.436035,4523.589844,4768.717773,4430.256348,4666.153809
4349.230957,4552.820313,4169.743652,4584.102539,4335.384766,4078.974365,4370.769043,4269.743652,4921.538574,4410.769043,4524.102539,4765.641113,4427.179688,4670.769043
4345.128418,4550.769043,4163.589844,4590.769043,4342.563965,4081.025635,4364.102539,4264.615234,4918.974121,4414.358887,4519.487305,4765.641113,4427.692383,4669.230957
4345.128418,4560.512695,4158.461426,4604.615234,4352.820313,4082.564209,4360,4253.846191,4917.436035,4411.282227,4514.358887,4763.077148,4427.179688,4663.077148
4354.358887,4570.769043,4166.153809,4605.128418,4354.871582,4084.102539,4365.128418,4248.717773,4913.333496,4413.333496,4522.05127,4764.102539,4427.692383,4663.589844
4345.128418,4558.974121,4167.179688,4595.384766,4342.05127,4079.487061,4361.025879,4237.436035,4906.666504,4418.461426,4516.410156,4763.589844,4421.025879,4657.94873
4336.922852,4552.307617,4162.563965,4595.384766,4331.282227,4071.281982,4355.384766,4231.282227,4902.563965,4416.922852,4507.692383,4759.487305,4418.461426,4656.922852
4354.358887,4567.179688,4170.256348,4601.538574,4342.563965,4076.923096,4365.641113,4251.282227,4912.307617,4418.974121,4523.077148,4767.179688,4429.743652,4669.230957
4360.512695,4573.846191,4174.871582,4603.077148,4352.820313,4088.205078,4376.410156,4270.769043,4925.128418,4428.205078,4530.769043,4779.487305,4433.846191,4670.256348
4349.230957,4566.666504,4169.743652,4600.512695,4345.641113,4085.641113,4373.846191,4264.615234,4919.487305,4425.641113,4520.512695,4780,4425.641113,4661.025879
4351.282227,4574.358887,4169.743652,4598.461426,4339.487305,4077.435791,4364.615234,4251.794922,4909.743652,4411.282227,4518.974121,4776.410156,4426.666504,4666.666504
4361.538574,4587.179688,4173.333496,4603.077148,4343.077148,4076.923096,4354.358887,4246.153809,4908.205078,4410.256348,4526.666504,4778.974121,4432.307617,4672.820313
4360,4587.179688,4179.487305,4609.743652,4346.666504,4079.487061,4351.282227,4245.128418,4907.692383,4413.846191,4532.307617,4783.589844,4425.128418,4667.692383
4355.897461,4583.589844,4184.102539,4607.179688,4342.05127,4076.923096,4354.358887,4247.692383,4910.769043,4411.282227,4534.358887,4780,4415.384766,4665.128418
4362.05127,4583.589844,4183.589844,4600.512695,4333.333496,4078.461426,4360,4252.820313,4923.589844,4423.589844,4534.358887,4784.615234,4420.512695,4670.256348
4370.256348,4590.256348,4185.128418,4603.589844,4338.461426,4083.589844,4363.589844,4256.922852,4929.230957,4444.615234,4541.025879,4798.974121,4433.333496,4675.897461
4362.563965,4587.692383,4178.461426,4601.025879,4343.589844,4079.487061,4355.897461,4252.307617,4915.897461,4437.436035,4537.94873,4791.282227,4427.179688,4669.230957
4345.128418,4572.307617,4161.025879,4589.743652,4326.666504,4073.846191,4357.94873,4248.205078,4906.666504,4416.410156,4520.512695,4764.615234,4406.153809,4651.282227
4337.94873,4565.128418,4151.794922,4582.05127,4316.410156,4076.923096,4375.897461,4257.436035,4914.358887,4415.897461,4517.436035,4755.384766,4396.922852,4637.436035
4339.487305,4565.128418,4159.487305,4574.871582,4330.256348,4082.564209,4378.461426,4264.102539,4921.025879,4426.153809,4518.974121,4769.230957,4397.436035,4634.871582
4337.94873,4557.94873,4165.641113,4574.871582,4334.358887,4075.897461,4360.512695,4254.358887,4911.794922,4428.717773,4506.666504,4777.94873,4394.871582,4635.384766
4346.153809,4557.436035,4172.820313,4589.230957,4324.102539,4061.025635,4351.282227,4247.179688,4902.563965,4424.102539,4513.333496,4783.077148,4396.922852,4645.128418
4362.563965,4570.769043,4192.820313,4602.05127,4321.538574,4058.461426,4355.897461,4251.282227,4905.641113,4427.692383,4536.922852,4801.025879,4404.102539,4659.487305
4367.179688,4575.897461,4202.563965,4601.538574,4321.025879,4064.615479,4360,4253.846191,4908.205078,4432.307617,4534.358887,4813.333496,4402.563965,4661.025879
4357.436035,4566.153809,4188.717773,4590.769043,4319.487305,4062.05127,4356.922852,4250.769043,4905.641113,4421.025879,4520,4803.589844,4392.307617,4649.743652
4354.871582,4565.128418,4180,4585.128418,4316.922852,4057.94873,4349.743652,4245.641113,4904.102539,4421.025879,4526.153809,4797.436035,4389.230957,4643.077148
4373.333496,4585.128418,4197.94873,4598.461426,4322.05127,4066.153809,4349.230957,4245.641113,4912.307617,4452.307617,4542.563965,4817.94873,4403.077148,4656.922852
4388.205078,4598.461426,4210.256348,4610.256348,4332.820313,4068.718018,4346.153809,4240.512695,4916.922852,4475.384766,4556.922852,4834.358887,4418.974121,4669.743652
4377.94873,4584.615234,4197.94873,4598.974121,4332.307617,4064.615479,4340.512695,4231.794922,4909.230957,4460.512695,4558.974121,4825.128418,4416.922852,4661.025879
4354.871582,4564.102539,4175.384766,4582.05127,4323.077148,4070.769287,4352.307617,4240,4907.692383,4435.384766,4542.563965,4803.589844,4397.94873,4635.897461
4335.384766,4555.897461,4158.461426,4574.358887,4325.128418,4076.410156,4369.230957,4252.307617,4913.846191,4415.897461,4512.820313,4782.563965,4384.102539,4609.743652
4323.589844,4551.794922,4156.410156,4568.205078,4334.871582,4071.281982,4371.282227,4250.256348,4909.743652,4397.436035,4490.769043,4775.384766,4386.153809,4596.410156
4321.538574,4548.717773,4163.077148,4564.102539,4337.436035,4063.076904,4361.538574,4244.615234,4901.025879,4377.94873,4491.794922,4779.487305,4391.282227,4594.358887
4325.128418,4552.820313,4169.230957,4575.384766,4340.512695,4055.897461,4348.717773,4244.615234,4898.461426,4360,4499.487305,4780,4400,4598.974121
4320,4553.846191,4172.820313,4585.128418,4341.538574,4046.666748,4336.410156,4234.358887,4885.128418,4351.794922,4489.230957,4778.461426,4413.333496,4595.384766
4320.512695,4550.769043,4184.102539,4576.410156,4335.384766,4045.128174,4337.436035,4224.615234,4873.846191,4348.205078,4487.692383,4788.717773,4427.179688,4595.384766
4338.461426,4553.333496,4201.025879,4573.333496,4338.461426,4058.461426,4355.384766,4237.436035,4888.205078,4353.333496,4513.333496,4807.179688,4448.717773,4614.871582
4346.153809,4555.897461,4205.128418,4583.077148,4354.358887,4065.128174,4358.974121,4247.692383,4898.974121,4363.077148,4521.025879,4813.846191,4471.794922,4624.102539
4338.974121,4549.743652,4206.153809,4585.641113,4359.487305,4055.897461,4338.461426,4236.922852,4892.820313,4354.358887,4503.077148,4815.384766,4476.410156,4605.128418
4348.205078,4550.256348,4220,4582.563965,4356.922852,4054.871826,4327.692383,4236.410156,4895.384766,4341.538574,4508.205078,4826.666504,4474.358887,4601.025879
4370.256348,4561.025879,4231.282227,4587.692383,4360,4062.564209,4331.282227,4248.717773,4904.102539,4352.820313,4528.717773,4837.94873,4484.615234,4621.538574
4370.769043,4561.025879,4223.589844,4584.102539,4354.871582,4055.897461,4321.025879,4242.05127,4895.384766,4363.077148,4527.179688,4832.307617,4483.077148,4613.846191
4358.974121,4551.794922,4216.410156,4577.94873,4352.820313,4048.205078,4307.692383,4226.153809,4883.077148,4352.820313,4509.230957,4815.897461,4463.077148,4585.641113
4357.436035,4554.358887,4214.358887,4581.025879,4360.512695,4047.692383,4307.692383,4220,4873.333496,4341.025879,4493.333496,4811.282227,4446.666504,4578.974121
4357.94873,4563.077148,4206.666504,4572.820313,4351.794922,4040,4309.743652,4208.205078,4859.487305,4323.589844,4477.94873,4810.256348,4437.436035,4575.384766
4353.333496,4557.94873,4207.179688,4567.179688,4343.077148,4035.384521,4308.717773,4198.461426,4856.410156,4315.384766,4470.769043,4803.589844,4428.205078,4559.487305
4352.820313,4555.384766,4215.897461,4580.512695,4347.179688,4037.94873,4301.538574,4200,4862.563965,4337.94873,4471.282227,4802.05127,4424.615234,4554.871582
4368.717773,4577.94873,4218.461426,4589.230957,4349.743652,4037.435791,4297.436035,4206.666504,4872.307617,4349.743652,4477.436035,4811.794922,4430.769043,4567.692383
4385.641113,4598.974121,4218.974121,4586.666504,4359.487305,4041.025635,4304.102539,4223.589844,4889.230957,4345.128418,4493.333496,4819.487305,4437.94873,4573.846191
4374.871582,4590.256348,4218.461426,4583.589844,4365.641113,4041.025635,4303.589844,4228.717773,4891.282227,4351.282227,4491.282227,4810.256348,4425.641113,4556.922852
4353.846191,4572.307617,4212.307617,4575.897461,4347.179688,4030.256348,4294.871582,4207.692383,4868.717773,4344.615234,4463.077148,4797.436035,4395.897461,4534.871582
4354.871582,4568.205078,4210.769043,4567.692383,4336.922852,4025.128174,4293.846191,4192.820313,4854.871582,4327.179688,4448.717773,4801.025879,4384.615234,4531.282227
4364.615234,4572.307617,4215.897461,4566.666504,4342.05127,4030.769287,4297.94873,4199.487305,4860.512695,4328.717773,4461.025879,4812.820313,4395.897461,4537.436035
4369.230957,4579.487305,4221.538574,4570.256348,4337.436035,4031.794922,4298.974121,4201.025879,4862.563965,4336.922852,4463.589844,4814.871582,4398.974121,4538.461426
4378.974121,4591.282227,4232.820313,4575.897461,4345.641113,4026.153809,4293.846191,4186.666504,4857.94873,4337.94873,4451.282227,4818.974121,4391.282227,4540.512695
4399.487305,4607.179688,4251.794922,4587.179688,4368.717773,4026.666748,4288.717773,4185.128418,4857.94873,4350.256348,4467.179688,4837.94873,4396.922852,4553.333496
4417.436035,4620.512695,4266.666504,4594.871582,4370.769043,4032.820557,4291.794922,4201.538574,4863.589844,4362.05127,4488.717773,4853.846191,4408.717773,4562.563965
4412.820313,4620.512695,4261.538574,4591.794922,4366.153809,4034.871826,4292.307617,4204.102539,4867.692383,4357.436035,4474.358887,4847.179688,4399.487305,4550.256348
4392.307617,4608.717773,4242.05127,4583.589844,4362.05127,4031.794922,4288.717773,4185.641113,4855.384766,4343.077148,4452.307617,4822.05127,4376.410156,4522.05127
4389.743652,4604.615234,4237.436035,4583.589844,4352.307617,4035.897461,4293.333496,4186.153809,4849.230957,4335.897461,4443.077148,4805.641113,4363.589844,4505.641113
4400.512695,4613.333496,4245.641113,4588.205078,4356.410156,4044.102539,4300,4202.563965,4859.487305,4347.692383,4429.230957,4808.717773,4360,4507.692383
4400.512695,4617.94873,4246.666504,4584.102539,4364.102539,4042.564209,4292.307617,4196.410156,4856.922852,4361.538574,4423.589844,4811.282227,4350.256348,4508.205078
4402.563965,4620,4244.615234,4582.05127,4359.487305,4033.333252,4282.563965,4184.102539,4849.743652,4358.974121,4434.871582,4811.282227,4333.846191,4504.615234
4410.769043,4620.512695,4248.205078,4585.128418,4355.897461,4027.179443,4283.589844,4187.179688,4852.820313,4346.153809,4424.615234,4814.358887,4317.94873,4500
4410.769043,4619.487305,4253.846191,4583.589844,4353.846191,4027.692383,4285.128418,4190.769043,4850.769043,4343.077148,4405.641113,4813.846191,4310.256348,4494.358887
4409.743652,4625.128418,4260,4583.077148,4349.230957,4026.153809,4281.538574,4183.077148,4841.538574,4351.794922,4404.615234,4812.307617,4305.128418,4488.717773
4409.743652,4630.256348,4263.077148,4584.102539,4347.692383,4020.512939,4276.922852,4172.307617,4840,4355.384766,4397.94873,4811.282227,4288.205078,4480
4414.871582,4629.743652,4263.077148,4586.153809,4352.820313,4025.128174,4285.641113,4167.179688,4842.563965,4356.922852,4396.410156,4807.692383,4277.436035,4474.871582
4424.615234,4633.846191,4268.717773,4584.102539,4356.922852,4030.256348,4291.282227,4171.794922,4843.077148,4354.358887,4400,4806.666504,4281.538574,4475.897461
4428.205078,4640.512695,4278.461426,4584.615234,4357.436035,4024.102539,4284.615234,4175.384766,4842.05127,4341.025879,4379.487305,4809.230957,4280,4477.436035
4434.358887,4653.333496,4282.563965,4601.025879,4356.922852,4031.794922,4288.205078,4166.666504,4838.974121,4348.717773,4370.256348,4813.846191,4276.922852,4483.077148
4447.179688,4669.743652,4281.025879,4611.282227,4366.666504,4043.076904,4292.307617,4154.358887,4835.897461,4370.769043,4395.897461,4811.794922,4284.102539,4487.692383
4446.153809,4668.717773,4280,4603.077148,4378.974121,4032.820557,4280.512695,4149.743652,4830.769043,4367.179688,4403.589844,4803.589844,4283.589844,4480.512695
4432.820313,4657.436035,4280,4595.384766,4373.846191,4028.718018,4276.410156,4151.794922,4824.615234,4354.871582,4377.436035,4799.487305,4270.256348,4467.692383
4424.615234,4652.307617,4269.743652,4593.333496,4360.512695,4035.897461,4291.282227,4151.282227,4816.410156,4355.384766,4362.05127,4791.282227,4252.820313,4453.333496
4427.692383,4648.717773,4261.538574,4586.153809,4360,4033.846191,4295.384766,4148.717773,4809.230957,4349.743652,4357.436035,4782.05127,4234.871582,4442.05127
4438.461426,4654.871582,4270.256348,4584.615234,4368.717773,4032.820557,4294.871582,4148.717773,4818.461426,4347.179688,4351.794922,4789.743652,4231.282227,4446.666504
4444.102539,4664.102539,4277.94873,4586.666504,4363.077148,4038.461426,4297.436035,4143.589844,4828.717773,4356.410156,4351.794922,4794.871582,4235.384766,4450.256348
4441.025879,4664.102539,4271.794922,4581.538574,4355.384766,4034.871826,4286.666504,4132.820313,4823.077148,4358.461426,4353.846191,4781.538574,4225.128418,4441.025879
4444.615234,4671.282227,4272.820313,4588.717773,4370.256348,4032.820557,4285.641113,4137.436035,4822.563965,4360.512695,4352.820313,4774.358887,4213.846191,4437.94873
4457.94873,4687.179688,4288.205078,4602.05127,4384.615234,4037.435791,4294.358887,4153.333496,4832.307617,4370.256348,4348.205078,4782.563965,4218.974121,4443.077148
4472.307617,4694.358887,4301.025879,4605.128418,4380.512695,4036.410156,4286.666504,4157.436035,4832.820313,4376.410156,4340.512695,4786.666504,4217.436035,4448.205078
4471.282227,4690.256348,4295.897461,4603.077148,4373.846191,4031.281982,4275.897461,4143.589844,4820.512695,4368.205078,4324.102539,4777.94873,4192.307617,4440.512695
4451.794922,4679.487305,4279.487305,4595.897461,4371.794922,4026.153809,4276.410156,4124.615234,4809.743652,4344.102539,4303.589844,4758.461426,4166.153809,4414.871582
4448.717773,4683.077148,4279.487305,4589.230957,4376.410156,4032.820557,4279.487305,4117.94873,4808.205078,4337.436035,4301.025879,4750.256348,4163.077148,4407.179688
4469.743652,4702.05127,4294.871582,4593.846191,4382.563965,4043.076904,4282.563965,4119.487305,4810.769043,4361.538574,4314.358887,4759.487305,4169.743652,4426.153809
4479.487305,4709.743652,4297.94873,4605.641113,4385.128418,4044.615479,4290.256348,4112.820313,4813.333496,4375.897461,4323.077148,4756.410156,4169.230957,4428.717773
4473.846191,4709.743652,4290.256348,4608.205078,4387.692383,4044.615479,4292.820313,4102.05127,4808.205078,4373.333496,4313.333496,4744.102539,4166.666504,4410.769043
4477.436035,4718.461426,4294.358887,4609.230957,4397.94873,4049.743652,4293.846191,4101.538574,4800.512695,4384.102539,4307.179688,4746.666504,4166.153809,4409.743652
4480.512695,4713.333496,4298.461426,4609.743652,4398.461426,4047.179443,4295.384766,4112.820313,4802.563965,4388.205078,4316.922852,4754.358887,4157.94873,4418.461426
4475.384766,4704.102539,4284.102539,4604.102539,4392.307617,4040,4292.820313,4120,4809.230957,4376.410156,4316.922852,4749.230957,4148.205078,4413.846191
4479.487305,4714.358887,4283.077148,4600,4397.94873,4049.230713,4301.025879,4122.563965,4818.974121,4392.307617,4313.846191,4743.077148,4151.282227,4413.333496
4490.256348,4722.05127,4301.538574,4603.589844,4403.589844,4063.589844,4311.794922,4122.563965,4826.153809,4413.846191,4326.153809,4752.307617,4159.487305,4427.179688
4498.461426,4722.05127,4303.077148,4612.820313,4405.128418,4058.461426,4302.563965,4115.384766,4820,4398.974121,4330.769043,4757.436035,4152.820313,4432.820313
4502.563965,4738.974121,4291.794922,4616.922852,4411.794922,4048.718018,4291.794922,4105.128418,4810.769043,4391.794922,4314.358887,4736.410156,4137.436035,4417.94873
4500.512695,4754.358887,4292.307617,4617.436035,4415.384766,4054.358887,4305.128418,4110.256348,4814.358887,4408.717773,4298.461426,4711.282227,4127.692383,4401.025879
4491.282227,4742.05127,4288.205078,4615.384766,4402.05127,4057.94873,4317.94873,4126.153809,4820,4402.05127,4283.589844,4695.384766,4105.641113,4387.179688
4486.153809,4730.769043,4280.512695,4611.282227,4392.820313,4049.743652,4307.179688,4122.05127,4813.846191,4383.077148,4262.563965,4678.461426,4073.846191,4372.307617
4499.487305,4745.641113,4292.307617,4617.436035,4405.641113,4049.230713,4302.05127,4103.589844,4803.077148,4389.743652,4257.436035,4678.461426,4071.281982,4378.461426
4517.436035,4762.563965,4303.589844,4625.641113,4414.871582,4054.871826,4305.128418,4091.281982,4795.384766,4398.974121,4268.717773,4698.974121,4088.205078,4401.025879
4525.641113,4762.05127,4305.641113,4625.641113,4410.256348,4056.410156,4296.922852,4084.102539,4792.307617,4395.384766,4285.128418,4711.794922,4090.769287,4413.333496
4531.794922,4766.153809,4314.358887,4628.717773,4415.897461,4059.487061,4291.282227,4083.076904,4795.384766,4395.384766,4303.077148,4720,4096.922852,4421.538574
4549.743652,4783.589844,4326.666504,4642.05127,4432.307617,4067.179443,4303.077148,4095.897461,4806.153809,4413.846191,4315.897461,4736.922852,4120.512695,4441.025879
4559.487305,4787.692383,4329.230957,4645.641113,4432.307617,4069.230713,4311.794922,4108.205078,4815.384766,4443.077148,4324.102539,4738.461426,4130.256348,4448.717773
4547.179688,4778.974121,4320.512695,4634.871582,4424.102539,4064.102539,4307.179688,4103.589844,4813.846191,4450.256348,4327.692383,4724.615234,4120,4438.974121
4538.974121,4775.897461,4309.743652,4628.205078,4427.179688,4062.564209,4305.128418,4093.333252,4811.794922,4431.282227,4317.94873,4716.922852,4110.769043,4433.846191
4542.05127,4772.820313,4309.230957,4631.794922,4428.717773,4065.641113,4309.230957,4086.153809,4812.307617,4429.230957,4310.256348,4714.871582,4106.153809,4432.307617
4542.563965,4766.666504,4311.794922,4631.794922,4429.743652,4067.179443,4313.846191,4078.974365,4811.282227,4444.615234,4317.94873,4708.205078,4102.563965,4432.307617
4535.384766,4764.615234,4298.974121,4618.974121,4422.563965,4067.692383,4320,4073.333252,4810.256348,4439.487305,4310.769043,4688.717773,4091.281982,4424.102539
4531.794922,4767.692383,4286.153809,4614.871582,4415.897461,4071.281982,4326.153809,4075.897461,4808.717773,4418.461426,4283.589844,4670.256348,4074.358887,4408.717773
4540,4776.410156,4293.846191,4628.717773,4430.769043,4075.897461,4328.205078,4089.230713,4810.256348,4408.717773,4272.307617,4668.717773,4063.589844,4411.282227
4552.307617,4786.153809,4305.641113,4637.436035,4444.615234,4075.384521,4326.666504,4096.410156,4815.897461,4413.846191,4277.436035,4668.717773,4061.025635,4424.615234
4561.538574,4791.282227,4313.333496,4637.436035,4437.436035,4072.820557,4325.128418,4087.692383,4812.307617,4428.205078,4275.384766,4662.563965,4057.435791,4425.641113
4566.666504,4788.717773,4320.512695,4639.487305,4434.358887,4075.897461,4322.05127,4074.871826,4807.179688,4440,4270.769043,4662.05127,4050.769287,4423.589844
4577.436035,4797.94873,4327.179688,4648.717773,4447.692383,4083.076904,4321.025879,4075.384521,4810.769043,4438.974121,4285.128418,4674.871582,4063.589844,4439.487305
4600.512695,4826.153809,4336.410156,4664.615234,4461.538574,4095.897461,4330.769043,4085.128174,4815.384766,4449.230957,4321.025879,4694.358887,4101.025879,4468.205078
4609.230957,4834.871582,4338.461426,4664.615234,4465.128418,4103.589844,4335.384766,4081.538574,4817.94873,4470.769043,4338.461426,4700.512695,4118.974121,4483.589844
4591.282227,4814.871582,4322.563965,4647.179688,4456.410156,4088.718018,4316.410156,4058.974365,4810.256348,4466.153809,4314.871582,4682.563965,4099.487305,4471.282227
4590.256348,4816.410156,4316.922852,4652.307617,4460,4076.410156,4304.102539,4047.692383,4801.538574,4453.333496,4306.153809,4667.179688,4094.358887,4464.615234
4613.333496,4839.487305,4330.769043,4675.384766,4474.871582,4094.871826,4321.025879,4055.384521,4807.179688,4462.563965,4321.538574,4667.179688,4109.230957,4476.410156
4607.692383,4830.256348,4324.615234,4670.256348,4467.179688,4105.641113,4333.333496,4062.05127,4813.846191,4457.94873,4308.205078,4654.871582,4092.820557,4467.179688
4583.077148,4809.230957,4301.538574,4650.769043,4454.358887,4092.820557,4329.230957,4067.692383,4811.282227,4439.487305,4291.282227,4636.922852,4070.256348,4447.692383
4585.128418,4814.358887,4298.974121,4648.717773,4462.05127,4094.871826,4334.358887,4076.923096,4814.358887,4448.717773,4306.666504,4637.436035,4080.512939,4455.384766
4608.205078,4828.205078,4313.333496,4658.974121,4471.282227,4107.179688,4347.179688,4084.615479,4825.641113,4469.743652,4326.153809,4653.333496,4098.974121,4480.512695
4627.179688,4842.05127,4328.205078,4672.820313,4477.436035,4107.179688,4351.794922,4095.384521,4838.461426,4482.05127,4333.846191,4668.205078,4107.692383,4500.512695
4636.410156,4849.230957,4335.384766,4682.563965,4484.615234,4106.666504,4348.205078,4101.025879,4842.563965,4480,4331.794922,4673.333496,4111.794922,4511.282227
4633.333496,4839.487305,4331.794922,4676.922852,4480,4111.794922,4351.282227,4094.871826,4832.820313,4461.025879,4314.871582,4663.589844,4105.641113,4507.692383
4625.641113,4826.666504,4321.025879,4667.179688,4471.282227,4115.897461,4355.897461,4084.102539,4826.666504,4465.641113,4312.820313,4640.512695,4094.871826,4493.333496
4623.589844,4829.743652,4320.512695,4675.384766,4474.871582,4120,4352.307617,4074.871826,4828.205078,4490.769043,4330.256348,4630.256348,4091.281982,4486.153809
4628.205078,4833.846191,4334.871582,4686.666504,4485.128418,4122.05127,4353.333496,4078.974365,4829.230957,4482.05127,4328.717773,4651.282227,4093.846191,4492.307617
4631.282227,4827.179688,4341.538574,4681.025879,4488.205078,4120,4362.05127,4090.256348,4835.384766,4467.179688,4328.205078,4673.333496,4100,4507.692383
4635.384766,4827.179688,4334.871582,4679.487305,4490.256348,4120.512695,4368.717773,4094.358887,4845.128418,4484.102539,4355.384766,4671.282227,4111.282227,4521.025879
4639.487305,4832.820313,4334.358887,4685.641113,4491.794922,4122.563965,4369.743652,4095.384521,4846.666504,4495.897461,4371.282227,4662.563965,4121.025879,4524.615234
4635.384766,4827.179688,4333.846191,4683.077148,4487.179688,4120,4368.717773,4095.384521,4843.077148,4489.743652,4354.871582,4658.461426,4118.461426,4523.589844
4628.717773,4815.897461,4324.102539,4678.461426,4487.179688,4115.897461,4367.692383,4094.871826,4837.94873,4495.384766,4341.538574,4649.743652,4110.256348,4520.512695
4623.589844,4811.794922,4313.846191,4678.461426,4492.307617,4117.94873,4368.205078,4093.846191,4831.282227,4491.794922,4349.230957,4635.897461,4107.179688,4509.743652
4615.384766,4810.769043,4309.743652,4678.461426,4489.230957,4121.538574,4366.153809,4089.230713,4832.820313,4474.871582,4350.256348,4626.666504,4106.666504,4505.641113
4615.897461,4810.256348,4310.256348,4679.487305,4485.128418,4122.05127,4361.538574,4085.128174,4842.563965,4480,4339.487305,4629.230957,4104.615234,4516.922852
4625.128418,4811.794922,4303.589844,4676.410156,4494.358887,4125.641113,4367.179688,4089.743652,4847.179688,4494.358887,4347.692383,4629.230957,4108.205078,4522.563965
4626.666504,4811.282227,4291.282227,4670.256348,4493.333496,4128.717773,4374.871582,4091.281982,4844.102539,4492.820313,4363.589844,4617.94873,4118.974121,4524.615234
4631.794922,4816.922852,4294.871582,4678.974121,4487.692383,4136.410156,4382.05127,4089.743652,4848.717773,4494.871582,4364.615234,4621.025879,4132.307617,4544.102539
4648.205078,4830.769043,4311.282227,4692.820313,4502.05127,4149.230957,4392.820313,4092.820557,4860,4508.717773,4369.743652,4640,4141.538574,4564.102539
4649.743652,4830.256348,4311.794922,4695.384766,4510.256348,4147.179688,4389.743652,4087.179443,4858.974121,4508.205078,4382.05127,4636.410156,4142.05127,4560.512695
4640,4816.922852,4308.205078,4692.820313,4502.05127,4136.410156,4377.436035,4082.564209,4854.358887,4500,4383.589844,4625.641113,4137.94873,4555.384766
4645.128418,4816.410156,4321.025879,4694.871582,4506.153809,4137.94873,4380.512695,4093.333252,4857.436035,4506.666504,4378.974121,4635.384766,4135.897461,4565.641113
4652.820313,4818.461426,4327.179688,4698.461426,4508.717773,4140.512695,4393.333496,4104.615234,4861.538574,4508.717773,4381.025879,4645.128418,4138.974121,4573.846191
4638.461426,4802.05127,4308.717773,4687.692383,4486.666504,4134.358887,4395.384766,4105.128418,4858.461426,4493.333496,4382.563965,4638.461426,4134.358887,4571.282227
4617.94873,4789.743652,4292.307617,4676.410156,4479.487305,4134.871582,4392.820313,4104.615234,4857.94873,4492.820313,4379.487305,4624.615234,4118.974121,4563.077148
4615.897461,4795.384766,4290.769043,4682.05127,4502.05127,4141.538574,4396.410156,4107.179688,4866.666504,4512.820313,4385.128418,4610.769043,4120,4557.436035
4626.666504,4798.461426,4286.666504,4691.282227,4509.230957,4141.025879,4396.922852,4104.615234,4873.333496,4516.410156,4394.358887,4605.128418,4143.077148,4564.615234
4634.871582,4797.436035,4285.641113,4691.794922,4503.077148,4145.641113,4400,4107.692383,4875.897461,4509.230957,4402.563965,4612.307617,4167.179688,4587.179688
4643.077148,4804.615234,4288.717773,4692.820313,4505.128418,4152.820313,4410.256348,4121.025879,4884.102539,4521.025879,4411.282227,4624.102539,4185.128418,4605.641113
4653.846191,4812.307617,4288.205078,4697.436035,4504.102539,4153.846191,4419.487305,4125.641113,4890.769043,4540.512695,4423.077148,4630.769043,4202.05127,4618.974121
4665.128418,4819.487305,4291.794922,4699.487305,4508.717773,4161.538574,4425.128418,4120.512695,4891.282227,4553.846191,4442.05127,4637.436035,4217.436035,4638.974121
4672.820313,4830.256348,4294.358887,4708.717773,4523.077148,4170.769043,4428.717773,4123.077148,4893.846191,4563.077148,4463.589844,4641.025879,4227.692383,4652.307617
4672.307617,4830.769043,4288.205078,4716.410156,4516.410156,4161.025879,4421.025879,4128.205078,4896.922852,4559.487305,4463.077148,4634.871582,4224.615234,4649.743652
4668.717773,4823.589844,4290.256348,4715.897461,4503.589844,4155.897461,4409.743652,4123.077148,4894.871582,4547.179688,4445.128418,4622.05127,4209.743652,4642.05127
4674.358887,4827.179688,4305.128418,4724.615234,4513.333496,4166.666504,4410.256348,4116.410156,4893.333496,4536.410156,4438.974121,4614.358887,4206.666504,4643.077148
4683.077148,4832.307617,4310.769043,4734.871582,4519.487305,4164.615234,4413.333496,4110.769043,4888.205078,4528.205078,4439.487305,4611.794922,4214.871582,4648.717773
4677.436035,4826.153809,4303.077148,4729.743652,4511.794922,4154.871582,4412.307617,4105.641113,4879.487305,4523.077148,4431.794922,4602.05127,4210.769043,4649.743652
4660,4807.692383,4292.307617,4716.410156,4506.153809,4153.846191,4414.871582,4104.615234,4871.794922,4516.410156,4421.538574,4595.384766,4193.333496,4643.077148
4655.384766,4793.333496,4288.717773,4715.384766,4504.615234,4154.358887,4418.974121,4106.666504,4870.256348,4519.487305,4430.769043,4603.589844,4197.436035,4643.589844
4667.692383,4804.615234,4292.307617,4724.102539,4515.897461,4158.461426,4415.897461,4113.846191,4884.615234,4537.436035,4456.410156,4615.897461,4226.666504,4659.487305
4669.230957,4812.820313,4296.922852,4728.205078,4522.563965,4166.666504,4416.922852,4122.563965,4898.461426,4546.666504,4466.153809,4620.512695,4233.846191,4670.769043
4651.794922,4790.769043,4293.333496,4724.102539,4507.692383,4167.179688,4426.666504,4122.05127,4894.358887,4542.563965,4461.025879,4623.589844,4228.717773,4668.205078
4646.153809,4773.846191,4286.666504,4717.94873,4504.615234,4165.128418,4428.717773,4124.102539,4894.358887,4536.410156,4471.282227,4631.794922,4249.230957,4675.384766
4653.846191,4783.077148,4284.102539,4718.974121,4522.563965,4166.666504,4424.615234,4132.307617,4904.615234,4530.256348,4490.256348,4634.358887,4275.384766,4692.307617
4650.769043,4784.615234,4279.487305,4716.410156,4525.128418,4166.666504,4433.333496,4138.461426,4908.205078,4522.563965,4494.358887,4626.153809,4287.179688,4694.871582
4639.487305,4770.256348,4275.384766,4711.282227,4518.974121,4164.615234,4446.666504,4148.205078,4907.692383,4505.128418,4478.461426,4631.282227,4299.487305,4698.461426
4637.94873,4768.717773,4277.436035,4713.333496,4524.102539,4166.153809,4444.615234,4162.05127,4910.769043,4489.743652,4467.692383,4649.230957,4321.538574,4715.384766
4640,4776.410156,4275.384766,4722.05127,4535.897461,4167.179688,4431.282227,4156.922852,4913.846191,4499.487305,4494.358887,4642.05127,4349.230957,4726.153809
4642.563965,4783.589844,4279.487305,4732.307617,4555.897461,4170.256348,4427.179688,4148.205078,4921.538574,4509.743652,4526.666504,4627.179688,4383.589844,4735.384766
4645.641113,4783.077148,4298.974121,4736.410156,4560.512695,4170.769043,4428.205078,4151.282227,4927.692383,4491.282227,4527.179688,4640.512695,4400.512695,4751.282227
4641.538574,4772.820313,4306.666504,4732.820313,4539.487305,4160,4410.256348,4142.563965,4916.922852,4475.384766,4518.461426,4652.820313,4397.94873,4753.846191
4640.512695,4773.333496,4298.974121,4736.410156,4538.461426,4149.230957,4391.282227,4129.743652,4907.692383,4478.461426,4521.538574,4642.563965,4405.128418,4747.692383
4647.692383,4780.512695,4296.922852,4748.717773,4556.410156,4153.333496,4393.846191,4136.922852,4909.230957,4468.717773,4522.563965,4641.538574,4410.256348,4750.769043
4648.717773,4773.333496,4295.384766,4751.282227,4559.487305,4159.487305,4400.512695,4141.025879,4911.794922,4456.922852,4517.94873,4648.205078,4404.615234,4751.794922
4641.538574,4764.102539,4291.794922,4740,4553.333496,4156.410156,4395.897461,4138.461426,4914.871582,4466.153809,4519.487305,4641.025879,4407.692383,4749.230957
4638.461426,4766.666504,4291.282227,4730.769043,4553.846191,4160,4394.358887,4146.666504,4922.05127,4481.538574,4523.077148,4636.410156,4415.897461,4750.256348
4641.025879,4762.05127,4293.333496,4730.769043,4555.897461,4168.717773,4400,4154.358887,4923.077148,4480,4517.94873,4640.512695,4413.846191,4749.230957
4641.538574,4750.769043,4297.94873,4734.871582,4552.820313,4171.794922,4408.717773,4153.333496,4914.358887,4462.05127,4513.333496,4641.025879,4409.230957,4752.820313
4635.897461,4744.102539,4294.358887,4729.743652,4542.05127,4170.769043,4414.358887,4152.820313,4909.230957,4452.820313,4515.897461,4632.820313,4409.743652,4761.538574
4626.666504,4737.436035,4278.974121,4716.922852,4536.410156,4169.230957,4411.794922,4149.743652,4905.641113,4453.333496,4514.358887,4624.102539,4408.717773,4763.077148
4623.077148,4729.743652,4268.205078,4713.846191,4541.538574,4168.717773,4413.846191,4151.282227,4906.153809,4452.820313,4510.769043,4628.717773,4410.769043,4762.05127
4618.974121,4721.538574,4258.974121,4717.94873,4537.94873,4169.230957,4421.538574,4155.384766,4915.384766,4462.05127,4516.410156,4631.282227,4420,4765.641113
4608.717773,4718.974121,4237.94873,4715.384766,4523.077148,4168.205078,4417.94873,4153.333496,4923.077148,4475.384766,4522.05127,4621.025879,4424.615234,4768.717773
4602.563965,4726.666504,4226.666504,4712.307617,4522.05127,4166.153809,4410.769043,4160.512695,4930.256348,4475.384766,4528.205078,4619.487305,4427.692383,4775.897461
4617.436035,4742.05127,4242.05127,4725.641113,4542.05127,4168.717773,4413.846191,4182.05127,4947.692383,4489.743652,4558.974121,4642.05127,4455.897461,4797.94873
4642.05127,4752.307617,4268.717773,4738.461426,4558.974121,4170.256348,4419.487305,4191.282227,4960,4520.512695,4594.871582,4668.205078,4496.410156,4825.128418
4651.282227,4754.871582,4283.077148,4740,4552.820313,4169.743652,4421.538574,4188.205078,4951.794922,4509.230957,4600,4682.563965,4503.077148,4843.589844
4640.512695,4753.846191,4280.512695,4735.384766,4542.563965,4171.794922,4423.589844,4178.461426,4938.461426,4477.94873,4582.05127,4678.974121,4478.974121,4842.05127
4621.025879,4738.974121,4262.05127,4726.153809,4533.846191,4164.615234,4414.871582,4159.487305,4927.692383,4463.077148,4550.256348,4655.384766,4452.307617,4819.487305
4602.563965,4715.384766,4239.487305,4713.846191,4526.153809,4154.871582,4404.615234,4150.256348,4919.487305,4449.743652,4524.102539,4628.717773,4435.384766,4796.922852
4594.871582,4708.205078,4233.333496,4714.358887,4535.384766,4156.410156,4403.589844,4155.897461,4921.538574,4449.230957,4527.692383,4614.358887,4435.897461,4790.769043
4600,4717.94873,4243.077148,4728.205078,4540.512695,4157.436035,4405.128418,4153.333496,4923.589844,4462.563965,4540.512695,4615.897461,4442.05127,4799.487305
4609.230957,4716.922852,4258.461426,4733.846191,4530.256348,4152.820313,4409.230957,4153.846191,4920.512695,4461.538574,4538.461426,4631.794922,4441.538574,4811.794922
4616.922852,4711.282227,4267.692383,4728.205078,4528.717773,4153.846191,4416.410156,4167.692383,4920.512695,4453.846191,4544.102539,4645.641113,4446.666504,4824.615234
4621.538574,4715.897461,4267.179688,4725.128418,4527.692383,4151.794922,4416.922852,4168.205078,4919.487305,4456.410156,4560,4647.179688,4459.487305,4835.384766
4636.922852,4733.333496,4272.307617,4738.461426,4523.077148,4154.871582,4421.538574,4167.179688,4924.102539,4466.666504,4569.230957,4657.436035,4471.794922,4854.358887
4650.769043,4747.179688,4277.436035,4750.256348,4534.358887,4168.205078,4434.358887,4180,4933.846191,4480,4576.410156,4672.307617,4478.974121,4873.846191
4641.025879,4743.589844,4258.974121,4741.538574,4543.077148,4170.769043,4428.717773,4181.025879,4936.410156,4488.717773,4583.077148,4670.256348,4480,4876.922852
4635.384766,4742.563965,4235.384766,4738.461426,4538.974121,4165.641113,4416.410156,4177.436035,4944.102539,4505.641113,4603.077148,4670.769043,4496.410156,4883.589844
4642.563965,4748.205078,4232.307617,4744.102539,4540,4169.230957,4420.512695,4190.769043,4964.102539,4530.256348,4625.641113,4682.563965,4523.077148,4900
4630.769043,4734.871582,4232.307617,4735.384766,4532.307617,4171.282227,4426.153809,4203.589844,4974.358887,4530.256348,4622.05127,4685.128418,4528.205078,4899.487305
4608.205078,4715.897461,4229.230957,4726.666504,4520.512695,4170.769043,4426.666504,4210.769043,4974.358887,4524.102539,4621.538574,4684.102539,4524.615234,4891.794922
4602.563965,4711.794922,4232.820313,4734.358887,4524.615234,4173.846191,4437.94873,4218.461426,4974.358887,4527.179688,4631.282227,4682.563965,4525.128418,4889.743652
4600.512695,4705.128418,4231.282227,4732.307617,4527.692383,4170.769043,4445.641113,4207.179688,4965.641113,4513.333496,4620.512695,4668.205078,4514.871582,4882.05127
4590.256348,4692.307617,4225.641113,4717.436035,4522.05127,4167.179688,4435.384766,4187.692383,4953.333496,4490.256348,4600,4655.384766,4502.563965,4872.820313
4586.153809,4688.205078,4226.666504,4719.487305,4523.589844,4166.153809,4427.692383,4184.102539,4944.615234,4481.538574,4588.717773,4653.333496,4492.307617,4874.358887
4584.615234,4687.692383,4228.717773,4730.769043,4525.128418,4158.974121,4421.025879,4185.128418,4935.384766,4464.615234,4580.512695,4646.666504,4475.897461,4870.769043
4587.179688,4686.153809,4229.230957,4736.410156,4516.410156,4151.282227,4411.794922,4181.538574,4934.358887,4450.256348,4587.179688,4645.128418,4472.820313,4867.179688
4595.384766,4685.128418,4240.512695,4736.922852,4514.358887,4152.307617,4416.410156,4185.641113,4941.538574,4466.153809,4602.05127,4661.538574,4487.179688,4878.974121
4601.025879,4681.538574,4253.333496,4731.794922,4521.538574,4153.846191,4427.692383,4196.410156,4945.128418,4476.410156,4602.563965,4680.512695,4488.717773,4891.794922
4599.487305,4673.846191,4250.256348,4722.563965,4520,4150.769043,4425.128418,4200.512695,4948.205078,4471.794922,4605.128418,4686.666504,4484.615234,4897.436035
4600.512695,4675.897461,4247.692383,4723.589844,4509.743652,4152.307617,4430.256348,4201.025879,4954.358887,4488.717773,4617.94873,4690.256348,4501.025879,4906.153809
4606.153809,4686.666504,4252.307617,4726.153809,4507.179688,4157.436035,4445.128418,4202.563965,4957.94873,4510.256348,4635.897461,4707.179688,4521.025879,4920
4604.615234,4688.205078,4238.461426,4717.94873,4511.282227,4156.410156,4442.05127,4204.102539,4960,4506.153809,4654.358887,4721.538574,4528.205078,4932.307617
4606.153809,4691.282227,4223.589844,4719.487305,4519.487305,4162.05127,4436.410156,4214.871582,4970.256348,4509.230957,4659.487305,4727.179688,4540,4941.538574
4617.436035,4704.102539,4237.436035,4733.846191,4529.743652,4172.820313,4444.615234,4232.820313,4985.128418,4530.256348,4658.974121,4735.897461,4555.384766,4954.358887
4622.05127,4706.153809,4254.871582,4741.538574,4523.589844,4165.128418,4445.641113,4237.94873,4989.743652,4542.563965,4677.436035,4740.512695,4560.512695,4957.94873
4608.205078,4688.205078,4250.769043,4735.384766,4506.153809,4148.717773,4441.538574,4232.820313,4986.153809,4547.179688,4693.846191,4731.794922,4557.436035,4949.230957
4592.820313,4670.256348,4240.512695,4725.128418,4503.589844,4148.717773,4446.153809,4233.333496,4987.692383,4547.692383,4685.128418,4722.563965,4547.179688,4940
4584.615234,4663.077148,4234.358887,4716.922852,4501.538574,4152.820313,4444.102539,4236.410156,4986.153809,4529.743652,4667.692383,4717.94873,4529.743652,4934.871582
4573.846191,4652.820313,4223.589844,4712.307617,4494.871582,4150.256348,4434.871582,4229.230957,4973.846191,4501.538574,4649.743652,4702.563965,4512.307617,4921.538574
4562.563965,4644.615234,4216.922852,4711.282227,4502.563965,4151.794922,4435.897461,4218.974121,4967.179688,4492.307617,4633.333496,4682.563965,4497.436035,4905.128418
4552.307617,4636.922852,4221.538574,4706.153809,4504.615234,4154.358887,4441.025879,4215.384766,4965.641113,4492.307617,4627.692383,4675.897461,4486.666504,4896.922852
4550.256348,4633.333496,4230.256348,4707.692383,4492.307617,4154.871582,4445.641113,4217.94873,4961.025879,4487.692383,4629.230957,4684.615234,4484.102539,4900.512695
4561.538574,4638.461426,4232.820313,4715.897461,4491.794922,4155.897461,4448.717773,4223.077148,4962.05127,4487.692383,4637.436035,4693.333496,4489.230957,4910.769043
4566.666504,4640.512695,4230.769043,4714.871582,4489.743652,4153.333496,4446.153809,4227.692383,4967.692383,4490.256348,4648.205078,4702.563965,4496.410156,4919.487305
4571.282227,4641.538574,4235.897461,4708.205078,4485.128418,4153.846191,4444.102539,4232.820313,4972.307617,4498.974121,4654.871582,4723.077148,4505.641113,4933.846191
4584.615234,4648.717773,4237.436035,4709.230957,4499.487305,4154.871582,4447.179688,4235.897461,4976.922852,4520,4672.307617,4740.512695,4520,4951.794922
4581.025879,4650.769043,4224.102539,4713.333496,4508.205078,4151.794922,4443.589844,4233.333496,4978.974121,4526.666504,4685.641113,4735.897461,4526.153809,4951.282227
4566.666504,4647.692383,4211.794922,4715.897461,4503.077148,4158.974121,4444.102539,4236.410156,4979.487305,4524.102539,4688.717773,4724.102539,4523.077148,4941.538574
4572.820313,4656.410156,4218.461426,4723.589844,4505.641113,4169.743652,4454.358887,4246.153809,4986.153809,4534.871582,4699.487305,4728.205078,4530.256348,4948.205078
4581.025879,4660.512695,4228.205078,4723.589844,4498.461426,4158.461426,4448.205078,4245.641113,4988.205078,4540,4707.179688,4737.94873,4541.538574,4958.461426
4577.436035,4648.717773,4231.794922,4712.820313,4479.487305,4145.128418,4441.538574,4245.641113,4984.615234,4535.384766,4701.025879,4738.461426,4538.974121,4957.94873
4577.436035,4638.974121,4229.743652,4708.717773,4474.358887,4152.307617,4455.897461,4262.05127,4993.846191,4541.538574,4694.358887,4738.461426,4529.230957,4956.922852
4569.743652,4630.256348,4220,4707.692383,4484.615234,4159.487305,4467.179688,4273.333496,5003.077148,4547.179688,4696.922852,4734.871582,4524.102539,4953.333496
4555.897461,4620,4216.410156,4703.077148,4491.794922,4156.410156,4463.077148,4263.589844,4995.384766,4540.512695,4697.94873,4720,4513.846191,4943.589844
4548.205078,4610.769043,4217.436035,4695.897461,4482.05127,4154.871582,4455.897461,4248.205078,4980,4527.692383,4683.589844,4702.05127,4500,4931.794922
4538.461426,4599.487305,4207.692383,4689.230957,4470.256348,4154.358887,4450.256348,4243.589844,4974.358887,4514.871582,4668.717773,4698.974121,4489.230957,4923.077148
4530.769043,4594.358887,4200,4682.563965,4471.282227,4148.717773,4447.692383,4242.563965,4967.692383,4502.563965,4663.077148,4701.025879,4479.487305,4915.384766
4532.820313,4596.922852,4201.538574,4687.179688,4473.333496,4143.077148,4445.641113,4235.897461,4958.974121,4494.871582,4660.512695,4701.025879,4470.769043,4912.307617
4535.384766,4601.538574,4203.077148,4698.974121,4475.384766,4140,4441.538574,4230.256348,4957.94873,4498.461426,4659.487305,4709.230957,4473.846191,4919.487305
4542.563965,4610.256348,4207.692383,4704.102539,4472.820313,4138.974121,4441.538574,4231.282227,4956.922852,4505.128418,4669.230957,4720,4487.692383,4930.256348
4552.307617,4613.846191,4215.384766,4702.563965,4464.615234,4138.974121,4443.077148,4231.794922,4955.384766,4504.615234,4681.538574,4721.538574,4491.282227,4935.384766
4554.871582,4607.179688,4216.922852,4698.461426,4469.743652,4142.05127,4442.563965,4233.333496,4960,4509.230957,4693.846191,4725.128418,4494.358887,4941.025879
4547.692383,4603.077148,4212.307617,4691.282227,4475.897461,4146.153809,4443.589844,4234.871582,4962.563965,4510.769043,4695.384766,4730.256348,4502.563965,4946.153809
4542.05127,4604.615234,4205.641113,4688.205078,4466.666504,4150.256348,4444.615234,4234.358887,4961.025879,4503.077148,4685.128418,4725.128418,4503.077148,4945.641113
4541.025879,4600.512695,4199.487305,4693.333496,4466.666504,4150.769043,4442.563965,4238.974121,4964.102539,4508.717773,4693.333496,4718.974121,4502.05127,4944.102539
4540,4597.436035,4198.461426,4696.410156,4476.410156,4149.230957,4446.153809,4246.153809,4969.230957,4522.563965,4713.333496,4718.974121,4509.230957,4948.205078
4541.025879,4600.512695,4203.589844,4697.436035,4470.769043,4153.333496,4460,4250.256348,4973.333496,4525.641113,4710.769043,4727.692383,4514.871582,4954.871582
4537.436035,4593.333496,4201.025879,4690.256348,4462.05127,4152.820313,4459.487305,4248.717773,4974.358887,4523.589844,4697.436035,4728.717773,4504.615234,4948.717773
4522.563965,4575.897461,4187.179688,4673.333496,4459.487305,4146.153809,4445.128418,4246.153809,4970.769043,4522.05127,4693.333496,4712.820313,4490.769043,4931.794922
4510.256348,4569.743652,4179.487305,4669.230957,4460,4149.230957,4449.743652,4253.333496,4974.358887,4522.05127,4690.769043,4708.205078,4490.256348,4927.179688
4508.205078,4571.794922,4182.05127,4672.307617,4460,4156.410156,4459.487305,4263.589844,4976.922852,4522.05127,4685.641113,4717.436035,4493.846191,4929.743652
4508.717773,4569.743652,4178.974121,4665.128418,4449.743652,4152.307617,4452.820313,4261.025879,4970.256348,4519.487305,4692.820313,4712.820313,4491.794922,4924.615234
4513.333496,4566.666504,4180.512695,4667.692383,4444.102539,4147.692383,4445.128418,4259.487305,4971.794922,4517.94873,4708.205078,4713.333496,4501.025879,4930.256348
4527.179688,4574.358887,4198.461426,4684.102539,4457.94873,4151.282227,4448.717773,4269.743652,4984.102539,4528.717773,4714.358887,4744.102539,4524.102539,4952.820313
4535.384766,4582.563965,4205.128418,4685.128418,4464.615234,4150.256348,4444.102539,4263.077148,4982.563965,4541.538574,4716.410156,4755.384766,4529.230957,4961.025879
4531.282227,4580,4202.563965,4678.461426,4457.94873,4141.538574,4430.769043,4244.615234,4973.846191,4544.102539,4722.05127,4742.563965,4524.615234,4953.333496
4524.615234,4573.333496,4204.102539,4678.974121,4457.94873,4135.897461,4430.769043,4240.512695,4972.307617,4538.974121,4721.538574,4740,4524.102539,4947.692383
4523.077148,4569.743652,4193.846191,4676.410156,4453.846191,4140,4438.461426,4242.05127,4969.743652,4531.282227,4711.282227,4734.358887,4514.871582,4943.077148
4522.05127,4570.256348,4182.563965,4670.256348,4444.102539,4151.282227,4447.179688,4243.589844,4971.794922,4523.077148,4700.512695,4726.153809,4507.692383,4938.461426
4511.794922,4564.102539,4183.589844,4663.589844,4444.102539,4153.333496,4454.358887,4248.205078,4976.410156,4520.512695,4705.641113,4728.717773,4514.358887,4935.897461
4501.025879,4553.846191,4176.922852,4658.461426,4445.641113,4144.102539,4453.846191,4249.230957,4972.307617,4524.102539,4712.820313,4724.102539,4514.871582,4930.769043
4503.077148,4549.743652,4166.666504,4665.641113,4442.563965,4136.410156,4442.05127,4249.230957,4968.205078,4520.512695,4708.205078,4718.461426,4505.128418,4927.179688
4505.128418,4551.282227,4172.307617,4672.820313,4441.025879,4136.922852,4437.94873,4250.769043,4970.769043,4517.436035,4705.641113,4729.743652,4503.589844,4926.153809
4495.897461,4550.769043,4173.333496,4664.615234,4442.563965,4145.641113,4446.666504,4250.256348,4969.743652,4524.615234,4708.205078,4734.358887,4507.692383,4925.641113
4489.743652,4547.692383,4164.615234,4661.538574,4444.102539,4151.794922,4447.179688,4256.410156,4968.717773,4519.487305,4708.205078,4729.230957,4508.717773,4926.666504
4491.282227,4544.102539,4165.128418,4665.128418,4437.436035,4145.128418,4445.128418,4267.179688,4972.307617,4507.179688,4707.179688,4732.307617,4507.692383,4926.153809
4492.307617,4536.922852,4170.256348,4664.615234,4432.820313,4134.871582,4444.102539,4266.153809,4970.256348,4515.897461,4710.769043,4736.922852,4507.179688,4923.077148
4499.487305,4539.487305,4178.461426,4666.153809,4440,4135.897461,4443.589844,4262.563965,4971.282227,4533.333496,4721.025879,4747.692383,4514.871582,4932.820313
4511.794922,4553.333496,4188.205078,4671.282227,4443.589844,4141.025879,4444.102539,4266.666504,4978.461426,4536.922852,4733.333496,4764.615234,4530.769043,4950.769043
4516.410156,4555.384766,4191.282227,4671.282227,4441.025879,4140.512695,4442.05127,4267.179688,4980.512695,4541.025879,4739.487305,4770.256348,4544.102539,4957.436035
4513.846191,4543.077148,4187.692383,4669.230957,4440,4141.538574,4440.512695,4264.102539,4977.94873,4540,4739.487305,4768.205078,4538.974121,4954.358887
4508.717773,4537.436035,4181.025879,4667.179688,4432.307617,4149.230957,4443.077148,4267.179688,4978.461426,4526.666504,4731.794922,4761.025879,4525.641113,4946.153809
4500.512695,4537.94873,4169.743652,4661.025879,4427.179688,4151.794922,4444.615234,4263.589844,4978.974121,4527.179688,4722.563965,4743.589844,4525.641113,4933.846191
4489.230957,4525.641113,4158.974121,4652.820313,4429.743652,4142.563965,4443.077148,4246.153809,4972.820313,4524.102539,4718.974121,4728.205078,4522.05127,4922.05127
4475.897461,4510.256348,4152.307617,4646.666504,4426.666504,4137.94873,4440.512695,4234.358887,4960,4510.256348,4709.743652,4725.128418,4505.128418,4913.333496
4470.769043,4507.692383,4149.743652,4646.666504,4426.153809,4144.102539,4442.563965,4240.512695,4958.974121,4501.025879,4699.487305,4729.230957,4500.512695,4911.794922
4475.897461,4510.769043,4151.794922,4647.179688,4430.256348,4145.128418,4452.820313,4254.871582,4969.230957,4492.307617,4700,4734.871582,4506.666504,4912.820313
4469.230957,4501.025879,4153.333496,4637.436035,4418.974121,4141.025879,4457.94873,4260.512695,4971.282227,4498.974121,4701.538574,4735.384766,4503.589844,4906.666504
4453.333496,4488.717773,4147.179688,4628.205078,4407.692383,4140.512695,4449.230957,4255.897461,4966.153809,4524.615234,4700.512695,4730.256348,4500,4900.512695
4449.230957,4488.717773,4144.102539,4632.820313,4414.358887,4141.025879,4445.128418,4259.487305,4968.717773,4530.256348,4708.717773,4735.897461,4504.102539,4904.615234
4455.384766,4489.743652,4148.205078,4638.974121,4411.282227,4137.436035,4446.153809,4271.282227,4973.333496,4514.871582,4711.282227,4744.102539,4503.077148,4906.153809
4462.563965,4490.769043,4158.461426,4638.974121,4396.922852,4133.846191,4442.563965,4280,4974.358887,4525.128418,4713.333496,4754.358887,4502.563965,4908.205078
4483.589844,4506.153809,4179.487305,4651.794922,4408.205078,4140,4451.282227,4291.794922,4986.666504,4545.641113,4738.461426,4780.512695,4520,4930.256348
4494.871582,4513.333496,4191.794922,4663.077148,4416.410156,4143.589844,4457.94873,4298.461426,4990.256348,4538.974121,4748.717773,4796.922852,4530.256348,4943.077148
4477.94873,4494.358887,4177.94873,4652.307617,4397.436035,4134.871582,4443.589844,4284.615234,4974.871582,4520.512695,4722.563965,4785.128418,4513.846191,4928.205078
4468.717773,4488.205078,4168.205078,4645.128418,4398.461426,4132.820313,4438.974121,4268.205078,4964.615234,4516.922852,4711.794922,4773.333496,4503.077148,4916.410156
4474.358887,4498.974121,4172.820313,4649.743652,4417.94873,4138.974121,4447.692383,4263.077148,4962.563965,4523.589844,4726.153809,4771.794922,4512.307617,4915.384766
4462.563965,4487.692383,4164.615234,4643.589844,4407.692383,4136.410156,4443.589844,4256.410156,4953.846191,4521.538574,4720.512695,4761.538574,4509.230957,4900
4451.794922,4478.461426,4156.922852,4639.487305,4390.256348,4133.333496,4438.461426,4254.358887,4952.307617,4519.487305,4710.769043,4755.384766,4502.05127,4888.717773
4468.717773,4498.461426,4169.743652,4649.230957,4403.589844,4137.436035,4444.615234,4270.769043,4971.794922,4526.666504,4729.230957,4770.256348,4518.974121,4903.077148
4477.94873,4506.153809,4172.307617,4653.846191,4415.384766,4138.974121,4445.128418,4282.05127,4981.538574,4530.256348,4743.589844,4778.974121,4532.307617,4914.358887
4459.487305,4487.179688,4156.922852,4646.153809,4400.512695,4135.384766,4441.538574,4278.461426,4970.769043,4516.410156,4723.077148,4768.717773,4522.563965,4904.615234
4444.102539,4480,4151.282227,4638.974121,4390.769043,4136.410156,4447.179688,4275.897461,4967.692383,4511.282227,4711.282227,4756.410156,4517.436035,4891.794922
4446.666504,4490.769043,4155.384766,4639.487305,4403.077148,4141.538574,4457.436035,4280.512695,4976.410156,4528.205078,4729.743652,4759.487305,4525.641113,4891.282227
4447.179688,4490.769043,4151.794922,4643.077148,4402.563965,4142.563965,4458.974121,4284.102539,4980.512695,4529.743652,4734.358887,4763.077148,4520.512695,4890.256348
4446.666504,4486.153809,4149.230957,4644.615234,4388.717773,4140,4456.410156,4292.820313,4980,4520.512695,4723.589844,4764.615234,4516.410156,4888.717773
4459.487305,4492.307617,4157.94873,4647.692383,4395.384766,4140,4463.589844,4303.077148,4986.153809,4537.436035,4735.384766,4777.436035,4530.769043,4896.922852
4461.025879,4491.282227,4160.512695,4648.205078,4398.461426,4140,4464.102539,4302.05127,4987.692383,4547.179688,4741.025879,4780.512695,4533.333496,4900.512695
4450.256348,4478.974121,4154.871582,4642.05127,4386.153809,4136.922852,4448.717773,4296.410156,4978.974121,4526.153809,4718.461426,4772.307617,4518.461426,4892.307617
4447.692383,4472.820313,4156.410156,4638.461426,4390.256348,4131.794922,4438.461426,4290.256348,4972.820313,4520.512695,4715.897461,4771.282227,4519.487305,4889.230957
4449.230957,4474.871582,4158.461426,4638.974121,4400,4124.615234,4433.846191,4278.461426,4969.230957,4528.717773,4735.384766,4772.820313,4532.307617,4890.769043
4448.205078,4473.333496,4156.410156,4639.487305,4390.769043,4121.538574,4428.205078,4271.794922,4962.563965,4516.410156,4734.871582,4772.307617,4542.563965,4891.282227
4446.666504,4473.333496,4154.358887,4642.563965,4387.692383,4124.615234,4433.333496,4280,4963.077148,4494.358887,4717.94873,4780.512695,4558.461426,4892.307617
4437.436035,4474.871582,4154.871582,4643.077148,4404.102539,4128.717773,4443.589844,4292.820313,4972.820313,4481.538574,4718.974121,4784.102539,4577.436035,4884.615234
4424.615234,4472.307617,4153.333496,4644.102539,4424.102539,4134.871582,4446.153809,4297.436035,4978.461426,4473.846191,4735.384766,4773.333496,4599.487305,4877.94873
4416.410156,4468.717773,4147.179688,4640.512695,4427.179688,4137.436035,4442.05127,4293.846191,4976.410156,4464.615234,4734.358887,4766.666504,4618.974121,4879.487305
4392.820313,4452.307617,4131.282227,4621.538574,4411.282227,4126.666504,4426.666504,4275.384766,4969.743652,4445.641113,4708.717773,4753.333496,4609.230957,4863.589844
4364.102539,4429.743652,4118.461426,4614.358887,4405.128418,4118.974121,4410.769043,4260,4955.384766,4421.025879,4681.025879,4736.410156,4590.256348,4841.538574
4362.563965,4424.615234,4122.563965,4626.153809,4413.333496,4123.077148,4411.282227,4266.153809,4949.743652,4408.717773,4680,4741.025879,4598.461426,4841.025879
4368.205078,4428.717773,4127.179688,4625.128418,4415.384766,4120.512695,4409.743652,4276.922852,4956.410156,4407.692383,4697.436035,4746.666504,4613.333496,4844.615234
4373.846191,4434.871582,4134.358887,4623.589844,4417.94873,4123.589844,4411.282227,4283.589844,4963.589844,4412.307617,4710.769043,4751.794922,4622.563965,4847.179688
4390.769043,4444.615234,4151.794922,4638.461426,4429.230957,4137.436035,4422.05127,4295.897461,4968.717773,4416.922852,4712.307617,4773.846191,4638.974121,4861.538574
4390.769043,4445.128418,4152.820313,4640,4428.717773,4130.769043,4413.846191,4294.358887,4970.256348,4416.922852,4713.846191,4777.436035,4646.153809,4865.128418
4380.512695,4439.487305,4140.512695,4628.205078,4425.128418,4120,4400,4286.666504,4968.205078,4416.410156,4712.307617,4763.589844,4639.487305,4857.436035
4393.333496,4443.589844,4148.717773,4631.794922,4430.769043,4133.333496,4411.794922,4302.05127,4976.410156,4425.641113,4703.077148,4783.589844,4644.102539,4862.563965
4405.641113,4448.717773,4163.077148,4637.436035,4429.743652,4137.436035,4413.846191,4312.820313,4989.230957,4438.461426,4710.769043,4802.05127,4655.897461,4868.717773
4396.410156,4443.589844,4157.436035,4632.820313,4425.128418,4121.538574,4394.358887,4296.922852,4984.615234,4444.102539,4735.897461,4789.230957,4658.461426,4864.102539
4394.358887,4437.436035,4150.769043,4632.307617,4427.692383,4118.461426,4395.384766,4289.743652,4973.846191,4442.05127,4748.205078,4792.307617,4655.384766,4863.589844
4393.846191,4432.307617,4153.846191,4633.846191,4423.589844,4125.641113,4410.256348,4298.461426,4969.743652,4435.897461,4729.230957,4798.974121,4651.794922,4860.512695
4383.589844,4430.256348,4150.769043,4633.846191,4416.410156,4125.641113,4416.410156,4302.05127,4972.820313,4431.282227,4711.282227,4785.128418,4647.692383,4847.179688
4376.410156,4429.743652,4142.563965,4630.769043,4418.974121,4126.153809,4421.025879,4301.025879,4972.307617,4430.769043,4714.358887,4777.94873,4638.974121,4841.025879
4373.333496,4423.589844,4138.461426,4623.589844,4416.922852,4125.128418,4418.461426,4287.692383,4961.025879,4424.102539,4712.307617,4774.871582,4626.153809,4839.487305
4368.205078,4416.410156,4137.436035,4621.538574,4406.153809,4121.025879,4411.282227,4277.94873,4952.307617,4407.692383,4698.974121,4767.179688,4616.922852,4831.794922
4359.487305,4411.282227,4133.333496,4622.05127,4399.487305,4118.974121,4415.897461,4288.717773,4952.820313,4389.230957,4688.717773,4769.743652,4612.307617,4822.05127
4358.461426,4412.307617,4136.922852,4625.641113,4402.05127,4119.487305,4422.05127,4297.94873,4958.461426,4393.846191,4695.384766,4780,4615.897461,4827.179688
4373.333496,4420.512695,4152.307617,4631.794922,4410.769043,4121.538574,4416.410156,4295.897461,4964.615234,4422.05127,4710.769043,4786.153809,4628.717773,4843.077148
4381.025879,4429.743652,4154.871582,4633.846191,4416.922852,4117.94873,4407.692383,4292.307617,4963.077148,4433.333496,4715.384766,4785.641113,4638.461426,4847.692383
4368.205078,4426.153809,4145.641113,4629.743652,4407.692383,4106.666504,4398.461426,4281.025879,4953.333496,4410.769043,4702.05127,4780,4630.256348,4836.922852
4367.692383,4428.205078,4149.743652,4635.384766,4400.512695,4108.717773,4398.974121,4276.410156,4953.846191,4396.410156,4694.358887,4782.05127,4620,4837.436035
4382.563965,4440.512695,4159.487305,4647.179688,4411.282227,4121.025879,4404.102539,4286.153809,4961.538574,4407.692383,4701.025879,4788.205078,4626.666504,4843.589844
4379.487305,4439.487305,4151.282227,4644.615234,4419.487305,4115.897461,4396.922852,4278.974121,4955.384766,4421.025879,4707.692383,4779.487305,4634.358887,4834.358887
4366.666504,4427.179688,4138.974121,4635.384766,4413.333496,4103.077148,4390.769043,4266.666504,4949.230957,4412.820313,4712.820313,4774.358887,4622.563965,4828.205078
4355.384766,4413.333496,4135.897461,4626.153809,4403.077148,4103.077148,4397.94873,4277.436035,4949.230957,4395.897461,4707.692383,4775.897461,4601.538574,4823.589844
4341.025879,4403.077148,4128.717773,4615.384766,4392.820313,4103.077148,4398.974121,4283.589844,4946.666504,4395.897461,4687.692383,4766.153809,4589.743652,4802.563965
4333.846191,4403.077148,4119.487305,4613.846191,4387.692383,4098.461426,4393.333496,4275.384766,4946.666504,4411.794922,4676.410156,4756.922852,4593.846191,4793.846191
4340.512695,4410.769043,4123.077148,4625.641113,4388.717773,4103.589844,4402.05127,4284.615234,4953.846191,4426.666504,4686.666504,4762.05127,4607.179688,4808.205078
4350.769043,4418.974121,4135.384766,4635.384766,4392.307617,4109.743652,4413.846191,4303.077148,4963.077148,4433.333496,4703.589844,4770.256348,4616.922852,4816.410156
4355.384766,4423.589844,4140,4632.820313,4393.846191,4107.692383,4412.820313,4308.205078,4968.205078,4432.820313,4708.717773,4784.102539,4615.897461,4817.436035
4354.871582,4419.487305,4139.487305,4630.256348,4395.384766,4107.692383,4411.282227,4311.794922,4970.769043,4425.641113,4702.563965,4799.487305,4618.461426,4829.230957
4353.333496,4410.769043,4138.974121,4632.307617,4398.974121,4109.743652,4411.282227,4309.230957,4971.282227,4426.153809,4703.589844,4792.307617,4627.692383,4832.820313
4352.820313,4412.307617,4135.897461,4631.794922,4395.897461,4106.153809,4403.589844,4294.358887,4968.205078,4431.282227,4712.307617,4775.897461,4634.358887,4822.05127
4351.282227,4412.307617,4135.897461,4632.307617,4389.230957,4106.153809,4401.538574,4298.461426,4966.666504,4421.025879,4710.256348,4786.153809,4633.333496,4818.974121
4345.641113,4400.512695,4137.94873,4632.307617,4381.538574,4108.717773,4406.153809,4310.256348,4967.692383,4412.307617,4702.563965,4799.487305,4623.589844,4822.05127
4335.384766,4391.794922,4127.179688,4625.641113,4375.384766,4096.410156,4395.384766,4289.743652,4957.94873,4412.820313,4699.487305,4784.615234,4609.743652,4814.358887
4334.358887,4397.94873,4118.461426,4623.589844,4383.589844,4089.230713,4387.179688,4267.692383,4945.128418,4407.692383,4691.282227,4769.230957,4606.153809,4808.717773
4343.077148,4406.666504,4132.307617,4633.846191,4390.256348,4103.077148,4399.487305,4285.641113,4951.794922,4402.563965,4686.153809,4780.512695,4611.282227,4812.820313
4336.922852,4398.974121,4137.436035,4632.820313,4375.384766,4102.563965,4401.025879,4300,4960.512695,4403.077148,4694.871582,4785.641113,4606.153809,4805.641113
4325.128418,4393.846191,4123.589844,4623.589844,4370.256348,4087.179443,4391.282227,4283.589844,4948.717773,4399.487305,4693.333496,4769.743652,4601.025879,4793.846191
4329.230957,4395.897461,4122.05127,4622.05127,4382.05127,4089.230713,4394.358887,4273.333496,4936.410156,4395.384766,4675.384766,4763.589844,4600.512695,4794.358887
4329.230957,4387.179688,4129.230957,4620,4372.307617,4093.846191,4394.358887,4276.922852,4935.384766,4392.307617,4665.128418,4772.307617,4587.179688,4789.743652
4325.128418,4381.025879,4131.794922,4620,4361.538574,4088.205078,4387.179688,4280,4940.512695,4388.717773,4673.333496,4780,4581.025879,4781.025879
4327.179688,4385.641113,4135.384766,4625.641113,4368.717773,4089.743652,4387.179688,4282.563965,4946.153809,4397.436035,4677.94873,4782.563965,4592.820313,4783.589844
4321.025879,4382.05127,4129.743652,4620.512695,4365.641113,4090.769287,4390.256348,4282.05127,4947.692383,4413.846191,4671.794922,4781.025879,4590.769043,4784.615234
4314.871582,4376.410156,4122.05127,4611.282227,4355.384766,4084.615479,4389.230957,4278.461426,4948.205078,4413.846191,4676.922852,4777.436035,4580.512695,4777.94873
4323.589844,4381.538574,4131.282227,4615.384766,4358.974121,4086.153809,4388.717773,4283.077148,4950.769043,4409.743652,4695.897461,4783.077148,4594.358887,4783.589844
4330.256348,4385.128418,4140.512695,4623.589844,4361.538574,4091.281982,4391.794922,4289.230957,4948.205078,4414.358887,4698.461426,4797.436035,4606.153809,4793.846191
4325.128418,4381.025879,4137.94873,4620.512695,4351.794922,4090.769287,4393.846191,4284.615234,4940,4406.153809,4683.589844,4798.461426,4591.282227,4787.179688
4321.538574,4376.410156,4134.358887,4616.410156,4351.282227,4089.230713,4392.307617,4280,4938.974121,4396.410156,4682.563965,4785.641113,4580,4777.436035
4316.410156,4371.282227,4125.641113,4615.384766,4357.94873,4085.641113,4382.563965,4277.436035,4939.487305,4404.102539,4684.102539,4778.461426,4584.102539,4777.94873
4312.307617,4373.846191,4120.512695,4613.846191,4360.512695,4085.128174,4382.563965,4278.974121,4943.077148,4416.410156,4678.974121,4783.077148,4586.153809,4780.512695
4315.897461,4381.538574,4125.641113,4614.358887,4360,4091.281982,4393.846191,4291.282227,4951.794922,4413.846191,4685.128418,4787.692383,4586.153809,4780.512695
4314.358887,4379.487305,4124.615234,4614.871582,4352.820313,4089.230713,4389.230957,4297.436035,4953.846191,4409.230957,4687.692383,4787.179688,4583.077148,4778.974121
4309.230957,4375.897461,4121.025879,4614.358887,4347.179688,4082.05127,4380.512695,4289.743652,4952.820313,4416.410156,4676.410156,4789.743652,4574.871582,4778.974121
4313.846191,4381.025879,4130.256348,4616.410156,4355.384766,4088.205078,4391.794922,4290.769043,4955.384766,4429.743652,4686.153809,4797.436035,4575.897461,4781.538574
4321.025879,4387.692383,4137.436035,4615.897461,4366.153809,4094.871826,4399.487305,4296.410156,4955.897461,4437.94873,4708.717773,4799.487305,4587.179688,4782.563965
4321.538574,4387.179688,4136.410156,4611.282227,4358.974121,4090.769287,4394.358887,4292.820313,4952.307617,4429.230957,4704.102539,4802.563965,4586.666504,4786.153809
4317.436035,4382.05127,4135.897461,4613.846191,4342.05127,4089.743652,4401.538574,4293.333496,4950.769043,4415.384766,4685.128418,4810.256348,4572.820313,4787.179688
4311.282227,4375.897461,4130.256348,4617.94873,4341.538574,4092.820557,4405.641113,4299.487305,4950.769043,4410.256348,4676.922852,4806.666504,4560.512695,4772.820313
4307.179688,4374.358887,4120.512695,4615.384766,4348.205078,4088.205078,4394.358887,4293.333496,4944.102539,4415.384766,4675.384766,4789.230957,4554.358887,4760
4309.743652,4381.025879,4122.563965,4614.358887,4342.05127,4083.589844,4392.820313,4287.692383,4937.436035,4429.743652,4681.025879,4783.589844,4554.871582,4766.153809
4312.307617,4382.05127,4133.333496,4615.384766,4333.333496,4086.153809,4400,4294.871582,4937.94873,4429.743652,4687.692383,4793.333496,4556.410156,4770.256348
4309.230957,4370.769043,4136.922852,4614.358887,4334.358887,4085.641113,4397.94873,4298.974121,4940,4413.333496,4678.461426,4797.436035,4547.179688,4764.615234
4309.230957,4366.666504,4137.436035,4611.282227,4337.94873,4084.102539,4395.384766,4294.871582,4937.436035,4411.794922,4668.717773,4794.358887,4537.94873,4762.05127
4309.743652,4371.282227,4136.922852,4604.615234,4340,4086.153809,4398.461426,4294.871582,4936.922852,4428.205078,4677.436035,4794.358887,4539.487305,4762.05127
4302.05127,4367.179688,4133.846191,4602.05127,4341.025879,4088.718018,4401.025879,4298.461426,4940,4432.307617,4679.487305,4797.436035,4541.025879,4753.333496
4298.974121,4364.102539,4132.820313,4608.717773,4329.743652,4088.718018,4397.94873,4297.94873,4938.974121,4424.615234,4667.179688,4794.358887,4536.922852,4747.179688
4303.589844,4367.692383,4137.436035,4610.256348,4326.153809,4090.256348,4396.410156,4292.307617,4935.897461,4425.641113,4674.871582,4795.384766,4537.94873,4752.820313
4298.974121,4363.077148,4135.897461,4608.717773,4332.820313,4091.281982,4399.487305,4286.153809,4932.307617,4429.230957,4691.794922,4798.461426,4535.384766,4757.436035
4292.820313,4367.179688,4125.128418,4614.358887,4336.922852,4089.230713,4395.897461,4280.512695,4928.717773,4422.05127,4675.384766,4789.230957,4525.641113,4749.743652
4301.538574,4392.307617,4122.05127,4619.487305,4343.589844,4088.718018,4386.666504,4277.436035,4926.666504,4418.461426,4649.230957,4782.563965,4518.974121,4741.025879
4306.666504,4403.589844,4124.102539,4616.922852,4338.974121,4089.230713,4386.666504,4276.410156,4924.615234,4418.974121,4657.436035,4782.05127,4512.820313,4737.94873
4300.512695,4394.358887,4123.589844,4617.94873,4324.615234,4091.281982,4396.922852,4279.487305,4922.563965,4414.358887,4669.743652,4781.025879,4509.230957,4736.922852
4302.563965,4393.846191,4124.102539,4623.077148,4325.641113,4089.743652,4399.487305,4283.077148,4925.128418,4416.922852,4649.230957,4786.666504,4508.205078,4737.94873
4310.256348,4403.589844,4126.666504,4618.974121,4337.436035,4091.281982,4399.487305,4288.717773,4932.820313,4430.256348,4643.077148,4790.256348,4506.666504,4739.487305
4313.333496,4411.282227,4131.794922,4618.974121,4341.538574,4101.538574,4406.153809,4295.897461,4937.436035,4428.717773,4671.794922,4789.230957,4510.769043,4741.025879
4312.820313,4413.846191,4136.922852,4628.205078,4340.512695,4104.615234,4408.205078,4299.487305,4936.922852,4421.538574,4682.563965,4788.717773,4521.538574,4739.487305
4311.282227,4411.794922,4136.410156,4625.128418,4332.307617,4095.897461,4401.025879,4296.922852,4935.897461,4424.615234,4671.282227,4791.794922,4521.025879,4735.384766
4314.871582,4413.333496,4134.358887,4620.512695,4327.179688,4090.256348,4394.871582,4294.358887,4936.410156,4425.128418,4670.769043,4792.820313,4518.974121,4738.974121
4322.05127,4416.922852,4137.94873,4628.205078,4329.743652,4090.769287,4393.846191,4293.846191,4938.461426,4428.717773,4675.897461,4795.384766,4532.307617,4748.205078
4325.641113,4413.846191,4142.05127,4634.871582,4330.256348,4092.307617,4393.846191,4294.358887,4940.512695,4448.717773,4678.461426,4806.153809,4540.512695,4751.282227
4322.05127,4412.307617,4142.563965,4633.333496,4332.307617,4095.384521,4396.410156,4295.897461,4940.512695,4460,4683.077148,4810.769043,4532.820313,4744.102539
4313.333496,4411.794922,4138.974121,4627.179688,4337.436035,4095.384521,4395.384766,4293.333496,4937.436035,4446.153809,4677.436035,4797.94873,4520.512695,4731.282227
4303.589844,4405.641113,4130.769043,4618.974121,4335.897461,4091.794922,4393.846191,4286.666504,4935.897461,4436.922852,4665.128418,4781.538574,4512.307617,4721.025879
4298.974121,4402.563965,4122.563965,4620,4330.256348,4090.769287,4403.589844,4285.641113,4935.897461,4438.461426,4653.846191,4780.512695,4503.589844,4716.922852
4303.589844,4408.205078,4120.512695,4628.717773,4328.205078,4096.410156,4412.820313,4293.846191,4937.94873,4443.077148,4654.871582,4780.512695,4503.589844,4717.436035
4311.282227,4415.897461,4127.692383,4629.743652,4327.692383,4104.615234,4407.692383,4305.128418,4939.487305,4442.05127,4663.589844,4780.512695,4513.846191,4718.974121
4311.794922,4411.282227,4135.384766,4627.179688,4322.05127,4101.025879,4401.025879,4308.205078,4938.974121,4426.153809,4655.897461,4792.307617,4509.743652,4718.974121
4310.769043,4404.102539,4139.487305,4627.179688,4321.025879,4098.974121,4408.205078,4307.692383,4937.94873,4424.102539,4658.461426,4801.025879,4504.102539,4718.461426
4311.282227,4405.641113,4145.128418,4624.615234,4332.820313,4108.717773,4417.94873,4311.282227,4941.025879,4446.153809,4686.666504,4798.461426,4513.333496,4719.487305
4303.077148,4398.974121,4138.461426,4616.922852,4334.358887,4106.153809,4410.256348,4307.692383,4942.563965,4450.769043,4686.666504,4788.205078,4512.307617,4711.794922
4291.282227,4385.641113,4125.128418,4607.692383,4314.358887,4088.718018,4394.358887,4293.846191,4935.384766,4437.436035,4659.487305,4784.102539,4501.025879,4700.512695
4298.974121,4389.230957,4129.743652,4609.230957,4309.230957,4087.179443,4393.846191,4292.307617,4934.358887,4446.153809,4657.94873,4791.282227,4504.102539,4702.05127
4311.794922,4401.538574,4142.05127,4618.461426,4316.922852,4094.871826,4400.512695,4307.179688,4940.512695,4446.666504,4667.692383,4801.025879,4505.641113,4708.205078
4304.615234,4397.94873,4140,4618.974121,4312.307617,4091.794922,4396.922852,4307.179688,4934.358887,4424.615234,4653.333496,4798.461426,4486.666504,4701.538574
4293.333496,4386.666504,4132.307617,4609.230957,4306.666504,4087.179443,4398.461426,4292.307617,4921.025879,4420,4633.333496,4782.05127,4470.769043,4685.641113
4294.871582,4383.077148,4130.256348,4602.05127,4311.794922,4093.333252,4410.256348,4292.307617,4922.563965,4429.743652,4633.846191,4780,4471.794922,4685.641113
4297.94873,4382.563965,4127.179688,4603.589844,4312.307617,4101.538574,4416.410156,4301.538574,4930.256348,4429.230957,4648.205078,4794.358887,4474.871582,4696.410156
4293.333496,4380.512695,4122.05127,4601.538574,4309.230957,4096.922852,4412.307617,4298.461426,4925.128418,4418.461426,4646.153809,4790.256348,4469.230957,4688.717773
4289.743652,4381.538574,4122.563965,4596.922852,4315.897461,4086.666748,4399.487305,4291.794922,4918.974121,4415.384766,4629.743652,4777.94873,4465.128418,4676.410156
